#  E (eV)   dos(E)     Int dos(E) EFermi =    6.787 eV
  -9.293  0.3024E-03  0.3024E-05
  -9.283  0.3639E-03  0.6663E-05
  -9.273  0.4373E-03  0.1104E-04
  -9.263  0.5246E-03  0.1628E-04
  -9.253  0.6283E-03  0.2256E-04
  -9.243  0.7514E-03  0.3008E-04
  -9.233  0.8970E-03  0.3905E-04
  -9.223  0.1069E-02  0.4974E-04
  -9.213  0.1272E-02  0.6246E-04
  -9.203  0.1512E-02  0.7758E-04
  -9.193  0.1793E-02  0.9551E-04
  -9.183  0.2123E-02  0.1167E-03
  -9.173  0.2510E-02  0.1418E-03
  -9.163  0.2963E-02  0.1715E-03
  -9.153  0.3492E-02  0.2064E-03
  -9.143  0.4109E-02  0.2475E-03
  -9.133  0.4827E-02  0.2958E-03
  -9.123  0.5662E-02  0.3524E-03
  -9.113  0.6630E-02  0.4187E-03
  -9.103  0.7751E-02  0.4962E-03
  -9.093  0.9047E-02  0.5867E-03
  -9.083  0.1054E-01  0.6921E-03
  -9.073  0.1227E-01  0.8148E-03
  -9.063  0.1425E-01  0.9573E-03
  -9.053  0.1653E-01  0.1123E-02
  -9.043  0.1914E-01  0.1314E-02
  -9.033  0.2212E-01  0.1535E-02
  -9.023  0.2554E-01  0.1790E-02
  -9.013  0.2943E-01  0.2085E-02
  -9.003  0.3386E-01  0.2423E-02
  -8.993  0.3890E-01  0.2812E-02
  -8.983  0.4461E-01  0.3258E-02
  -8.973  0.5108E-01  0.3769E-02
  -8.963  0.5840E-01  0.4353E-02
  -8.953  0.6667E-01  0.5020E-02
  -8.943  0.7598E-01  0.5780E-02
  -8.933  0.8645E-01  0.6644E-02
  -8.923  0.9822E-01  0.7627E-02
  -8.913  0.1114E+00  0.8741E-02
  -8.903  0.1262E+00  0.1000E-01
  -8.893  0.1427E+00  0.1143E-01
  -8.883  0.1610E+00  0.1304E-01
  -8.873  0.1815E+00  0.1485E-01
  -8.863  0.2043E+00  0.1690E-01
  -8.853  0.2295E+00  0.1919E-01
  -8.843  0.2575E+00  0.2177E-01
  -8.833  0.2884E+00  0.2465E-01
  -8.823  0.3225E+00  0.2788E-01
  -8.813  0.3600E+00  0.3148E-01
  -8.803  0.4014E+00  0.3549E-01
  -8.793  0.4467E+00  0.3996E-01
  -8.783  0.4964E+00  0.4492E-01
  -8.773  0.5508E+00  0.5043E-01
  -8.763  0.6101E+00  0.5653E-01
  -8.753  0.6748E+00  0.6328E-01
  -8.743  0.7452E+00  0.7073E-01
  -8.733  0.8216E+00  0.7895E-01
  -8.723  0.9045E+00  0.8799E-01
  -8.713  0.9941E+00  0.9793E-01
  -8.703  0.1091E+01  0.1088E+00
  -8.693  0.1195E+01  0.1208E+00
  -8.683  0.1307E+01  0.1339E+00
  -8.673  0.1428E+01  0.1481E+00
  -8.663  0.1557E+01  0.1637E+00
  -8.653  0.1696E+01  0.1807E+00
  -8.643  0.1843E+01  0.1991E+00
  -8.633  0.2001E+01  0.2191E+00
  -8.623  0.2168E+01  0.2408E+00
  -8.613  0.2346E+01  0.2642E+00
  -8.603  0.2534E+01  0.2896E+00
  -8.593  0.2733E+01  0.3169E+00
  -8.583  0.2943E+01  0.3463E+00
  -8.573  0.3164E+01  0.3780E+00
  -8.563  0.3397E+01  0.4120E+00
  -8.553  0.3641E+01  0.4484E+00
  -8.543  0.3896E+01  0.4873E+00
  -8.533  0.4163E+01  0.5290E+00
  -8.523  0.4441E+01  0.5734E+00
  -8.513  0.4730E+01  0.6207E+00
  -8.503  0.5030E+01  0.6710E+00
  -8.493  0.5340E+01  0.7244E+00
  -8.483  0.5661E+01  0.7810E+00
  -8.473  0.5991E+01  0.8409E+00
  -8.463  0.6331E+01  0.9042E+00
  -8.453  0.6679E+01  0.9710E+00
  -8.443  0.7036E+01  0.1041E+01
  -8.433  0.7400E+01  0.1115E+01
  -8.423  0.7770E+01  0.1193E+01
  -8.413  0.8146E+01  0.1275E+01
  -8.403  0.8527E+01  0.1360E+01
  -8.393  0.8912E+01  0.1449E+01
  -8.383  0.9298E+01  0.1542E+01
  -8.373  0.9687E+01  0.1639E+01
  -8.363  0.1008E+02  0.1740E+01
  -8.353  0.1046E+02  0.1844E+01
  -8.343  0.1085E+02  0.1953E+01
  -8.333  0.1123E+02  0.2065E+01
  -8.323  0.1161E+02  0.2181E+01
  -8.313  0.1198E+02  0.2301E+01
  -8.303  0.1234E+02  0.2424E+01
  -8.293  0.1269E+02  0.2551E+01
  -8.283  0.1303E+02  0.2681E+01
  -8.273  0.1336E+02  0.2815E+01
  -8.263  0.1368E+02  0.2952E+01
  -8.253  0.1398E+02  0.3092E+01
  -8.243  0.1427E+02  0.3234E+01
  -8.233  0.1453E+02  0.3380E+01
  -8.223  0.1478E+02  0.3527E+01
  -8.213  0.1501E+02  0.3678E+01
  -8.203  0.1522E+02  0.3830E+01
  -8.193  0.1541E+02  0.3984E+01
  -8.183  0.1557E+02  0.4140E+01
  -8.173  0.1571E+02  0.4297E+01
  -8.163  0.1583E+02  0.4455E+01
  -8.153  0.1592E+02  0.4614E+01
  -8.143  0.1599E+02  0.4774E+01
  -8.133  0.1603E+02  0.4934E+01
  -8.123  0.1604E+02  0.5095E+01
  -8.113  0.1603E+02  0.5255E+01
  -8.103  0.1599E+02  0.5415E+01
  -8.093  0.1593E+02  0.5574E+01
  -8.083  0.1584E+02  0.5733E+01
  -8.073  0.1573E+02  0.5890E+01
  -8.063  0.1559E+02  0.6046E+01
  -8.053  0.1543E+02  0.6200E+01
  -8.043  0.1524E+02  0.6353E+01
  -8.033  0.1503E+02  0.6503E+01
  -8.023  0.1481E+02  0.6651E+01
  -8.013  0.1456E+02  0.6796E+01
  -8.003  0.1429E+02  0.6939E+01
  -7.993  0.1400E+02  0.7079E+01
  -7.983  0.1370E+02  0.7216E+01
  -7.973  0.1338E+02  0.7350E+01
  -7.963  0.1305E+02  0.7481E+01
  -7.953  0.1271E+02  0.7608E+01
  -7.943  0.1235E+02  0.7731E+01
  -7.933  0.1199E+02  0.7851E+01
  -7.923  0.1161E+02  0.7967E+01
  -7.913  0.1123E+02  0.8080E+01
  -7.903  0.1085E+02  0.8188E+01
  -7.893  0.1046E+02  0.8293E+01
  -7.883  0.1006E+02  0.8393E+01
  -7.873  0.9671E+01  0.8490E+01
  -7.863  0.9277E+01  0.8583E+01
  -7.853  0.8885E+01  0.8672E+01
  -7.843  0.8496E+01  0.8757E+01
  -7.833  0.8110E+01  0.8838E+01
  -7.823  0.7729E+01  0.8915E+01
  -7.813  0.7354E+01  0.8989E+01
  -7.803  0.6985E+01  0.9058E+01
  -7.793  0.6624E+01  0.9125E+01
  -7.783  0.6271E+01  0.9187E+01
  -7.773  0.5927E+01  0.9247E+01
  -7.763  0.5593E+01  0.9303E+01
  -7.753  0.5269E+01  0.9355E+01
  -7.743  0.4955E+01  0.9405E+01
  -7.733  0.4653E+01  0.9451E+01
  -7.723  0.4361E+01  0.9495E+01
  -7.713  0.4081E+01  0.9536E+01
  -7.703  0.3813E+01  0.9574E+01
  -7.693  0.3556E+01  0.9609E+01
  -7.683  0.3312E+01  0.9643E+01
  -7.673  0.3078E+01  0.9673E+01
  -7.663  0.2857E+01  0.9702E+01
  -7.653  0.2647E+01  0.9728E+01
  -7.643  0.2448E+01  0.9753E+01
  -7.633  0.2261E+01  0.9775E+01
  -7.623  0.2084E+01  0.9796E+01
  -7.613  0.1918E+01  0.9815E+01
  -7.603  0.1762E+01  0.9833E+01
  -7.593  0.1617E+01  0.9849E+01
  -7.583  0.1480E+01  0.9864E+01
  -7.573  0.1353E+01  0.9878E+01
  -7.563  0.1235E+01  0.9890E+01
  -7.553  0.1125E+01  0.9901E+01
  -7.543  0.1024E+01  0.9911E+01
  -7.533  0.9297E+00  0.9921E+01
  -7.523  0.8428E+00  0.9929E+01
  -7.513  0.7628E+00  0.9937E+01
  -7.503  0.6892E+00  0.9944E+01
  -7.493  0.6217E+00  0.9950E+01
  -7.483  0.5599E+00  0.9956E+01
  -7.473  0.5033E+00  0.9961E+01
  -7.463  0.4517E+00  0.9965E+01
  -7.453  0.4047E+00  0.9969E+01
  -7.443  0.3620E+00  0.9973E+01
  -7.433  0.3233E+00  0.9976E+01
  -7.423  0.2882E+00  0.9979E+01
  -7.413  0.2565E+00  0.9981E+01
  -7.403  0.2279E+00  0.9984E+01
  -7.393  0.2021E+00  0.9986E+01
  -7.383  0.1790E+00  0.9988E+01
  -7.373  0.1582E+00  0.9989E+01
  -7.363  0.1396E+00  0.9990E+01
  -7.353  0.1230E+00  0.9992E+01
  -7.343  0.1082E+00  0.9993E+01
  -7.333  0.9500E-01  0.9994E+01
  -7.323  0.8327E-01  0.9995E+01
  -7.313  0.7287E-01  0.9995E+01
  -7.303  0.6366E-01  0.9996E+01
  -7.293  0.5552E-01  0.9997E+01
  -7.283  0.4834E-01  0.9997E+01
  -7.273  0.4202E-01  0.9997E+01
  -7.263  0.3646E-01  0.9998E+01
  -7.253  0.3158E-01  0.9998E+01
  -7.243  0.2731E-01  0.9998E+01
  -7.233  0.2358E-01  0.9999E+01
  -7.223  0.2032E-01  0.9999E+01
  -7.213  0.1749E-01  0.9999E+01
  -7.203  0.1502E-01  0.9999E+01
  -7.193  0.1288E-01  0.9999E+01
  -7.183  0.1103E-01  0.9999E+01
  -7.173  0.9424E-02  0.9999E+01
  -7.163  0.8041E-02  0.1000E+02
  -7.153  0.6849E-02  0.1000E+02
  -7.143  0.5824E-02  0.1000E+02
  -7.133  0.4945E-02  0.1000E+02
  -7.123  0.4192E-02  0.1000E+02
  -7.113  0.3548E-02  0.1000E+02
  -7.103  0.2998E-02  0.1000E+02
  -7.093  0.2530E-02  0.1000E+02
  -7.083  0.2132E-02  0.1000E+02
  -7.073  0.1794E-02  0.1000E+02
  -7.063  0.1509E-02  0.1000E+02
  -7.053  0.1268E-02  0.1000E+02
  -7.043  0.1065E-02  0.1000E+02
  -7.033  0.8949E-03  0.1000E+02
  -7.023  0.7527E-03  0.1000E+02
  -7.013  0.6344E-03  0.1000E+02
  -7.003  0.5365E-03  0.1000E+02
  -6.993  0.4562E-03  0.1000E+02
  -6.983  0.3908E-03  0.1000E+02
  -6.973  0.3384E-03  0.1000E+02
  -6.963  0.2971E-03  0.1000E+02
  -6.953  0.2655E-03  0.1000E+02
  -6.943  0.2425E-03  0.1000E+02
  -6.933  0.2271E-03  0.1000E+02
  -6.923  0.2184E-03  0.1000E+02
  -6.913  0.2160E-03  0.1000E+02
  -6.903  0.2194E-03  0.1000E+02
  -6.893  0.2283E-03  0.1000E+02
  -6.883  0.2426E-03  0.1000E+02
  -6.873  0.2621E-03  0.1000E+02
  -6.863  0.2871E-03  0.1000E+02
  -6.853  0.3175E-03  0.1000E+02
  -6.843  0.3537E-03  0.1000E+02
  -6.833  0.3960E-03  0.1000E+02
  -6.823  0.4447E-03  0.1000E+02
  -6.813  0.5005E-03  0.1000E+02
  -6.803  0.5637E-03  0.1000E+02
  -6.793  0.6351E-03  0.1000E+02
  -6.783  0.7154E-03  0.1000E+02
  -6.773  0.8054E-03  0.1000E+02
  -6.763  0.9059E-03  0.1000E+02
  -6.753  0.1018E-02  0.1000E+02
  -6.743  0.1142E-02  0.1000E+02
  -6.733  0.1281E-02  0.1000E+02
  -6.723  0.1433E-02  0.1000E+02
  -6.713  0.1602E-02  0.1000E+02
  -6.703  0.1789E-02  0.1000E+02
  -6.693  0.1994E-02  0.1000E+02
  -6.683  0.2220E-02  0.1000E+02
  -6.673  0.2467E-02  0.1000E+02
  -6.663  0.2738E-02  0.1000E+02
  -6.653  0.3035E-02  0.1000E+02
  -6.643  0.3359E-02  0.1000E+02
  -6.633  0.3712E-02  0.1000E+02
  -6.623  0.4097E-02  0.1000E+02
  -6.613  0.4515E-02  0.1000E+02
  -6.603  0.4968E-02  0.1000E+02
  -6.593  0.5460E-02  0.1000E+02
  -6.583  0.5991E-02  0.1000E+02
  -6.573  0.6565E-02  0.1000E+02
  -6.563  0.7184E-02  0.1000E+02
  -6.553  0.7850E-02  0.1000E+02
  -6.543  0.8566E-02  0.1000E+02
  -6.533  0.9335E-02  0.1000E+02
  -6.523  0.1016E-01  0.1000E+02
  -6.513  0.1104E-01  0.1000E+02
  -6.503  0.1198E-01  0.1000E+02
  -6.493  0.1298E-01  0.1000E+02
  -6.483  0.1405E-01  0.1000E+02
  -6.473  0.1519E-01  0.1000E+02
  -6.463  0.1640E-01  0.1000E+02
  -6.453  0.1768E-01  0.1000E+02
  -6.443  0.1903E-01  0.1000E+02
  -6.433  0.2046E-01  0.1000E+02
  -6.423  0.2198E-01  0.1000E+02
  -6.413  0.2357E-01  0.1000E+02
  -6.403  0.2524E-01  0.1000E+02
  -6.393  0.2701E-01  0.1000E+02
  -6.383  0.2885E-01  0.1000E+02
  -6.373  0.3079E-01  0.1000E+02
  -6.363  0.3282E-01  0.1000E+02
  -6.353  0.3493E-01  0.1000E+02
  -6.343  0.3714E-01  0.1001E+02
  -6.333  0.3944E-01  0.1001E+02
  -6.323  0.4183E-01  0.1001E+02
  -6.313  0.4432E-01  0.1001E+02
  -6.303  0.4690E-01  0.1001E+02
  -6.293  0.4957E-01  0.1001E+02
  -6.283  0.5233E-01  0.1001E+02
  -6.273  0.5519E-01  0.1001E+02
  -6.263  0.5814E-01  0.1001E+02
  -6.253  0.6117E-01  0.1001E+02
  -6.243  0.6430E-01  0.1001E+02
  -6.233  0.6751E-01  0.1001E+02
  -6.223  0.7081E-01  0.1001E+02
  -6.213  0.7419E-01  0.1001E+02
  -6.203  0.7766E-01  0.1001E+02
  -6.193  0.8120E-01  0.1001E+02
  -6.183  0.8482E-01  0.1001E+02
  -6.173  0.8851E-01  0.1002E+02
  -6.163  0.9227E-01  0.1002E+02
  -6.153  0.9610E-01  0.1002E+02
  -6.143  0.9999E-01  0.1002E+02
  -6.133  0.1039E+00  0.1002E+02
  -6.123  0.1080E+00  0.1002E+02
  -6.113  0.1120E+00  0.1002E+02
  -6.103  0.1161E+00  0.1002E+02
  -6.093  0.1203E+00  0.1002E+02
  -6.083  0.1245E+00  0.1003E+02
  -6.073  0.1288E+00  0.1003E+02
  -6.063  0.1330E+00  0.1003E+02
  -6.053  0.1374E+00  0.1003E+02
  -6.043  0.1417E+00  0.1003E+02
  -6.033  0.1461E+00  0.1003E+02
  -6.023  0.1505E+00  0.1003E+02
  -6.013  0.1549E+00  0.1004E+02
  -6.003  0.1593E+00  0.1004E+02
  -5.993  0.1637E+00  0.1004E+02
  -5.983  0.1682E+00  0.1004E+02
  -5.973  0.1726E+00  0.1004E+02
  -5.963  0.1771E+00  0.1004E+02
  -5.953  0.1815E+00  0.1005E+02
  -5.943  0.1860E+00  0.1005E+02
  -5.933  0.1904E+00  0.1005E+02
  -5.923  0.1949E+00  0.1005E+02
  -5.913  0.1993E+00  0.1005E+02
  -5.903  0.2037E+00  0.1006E+02
  -5.893  0.2081E+00  0.1006E+02
  -5.883  0.2125E+00  0.1006E+02
  -5.873  0.2169E+00  0.1006E+02
  -5.863  0.2212E+00  0.1006E+02
  -5.853  0.2256E+00  0.1007E+02
  -5.843  0.2299E+00  0.1007E+02
  -5.833  0.2342E+00  0.1007E+02
  -5.823  0.2384E+00  0.1007E+02
  -5.813  0.2427E+00  0.1008E+02
  -5.803  0.2469E+00  0.1008E+02
  -5.793  0.2511E+00  0.1008E+02
  -5.783  0.2553E+00  0.1008E+02
  -5.773  0.2595E+00  0.1009E+02
  -5.763  0.2636E+00  0.1009E+02
  -5.753  0.2677E+00  0.1009E+02
  -5.743  0.2718E+00  0.1009E+02
  -5.733  0.2759E+00  0.1010E+02
  -5.723  0.2799E+00  0.1010E+02
  -5.713  0.2839E+00  0.1010E+02
  -5.703  0.2879E+00  0.1011E+02
  -5.693  0.2919E+00  0.1011E+02
  -5.683  0.2959E+00  0.1011E+02
  -5.673  0.2998E+00  0.1011E+02
  -5.663  0.3037E+00  0.1012E+02
  -5.653  0.3077E+00  0.1012E+02
  -5.643  0.3116E+00  0.1012E+02
  -5.633  0.3154E+00  0.1013E+02
  -5.623  0.3193E+00  0.1013E+02
  -5.613  0.3231E+00  0.1013E+02
  -5.603  0.3270E+00  0.1014E+02
  -5.593  0.3308E+00  0.1014E+02
  -5.583  0.3346E+00  0.1014E+02
  -5.573  0.3384E+00  0.1015E+02
  -5.563  0.3422E+00  0.1015E+02
  -5.553  0.3460E+00  0.1015E+02
  -5.543  0.3498E+00  0.1016E+02
  -5.533  0.3536E+00  0.1016E+02
  -5.523  0.3574E+00  0.1016E+02
  -5.513  0.3612E+00  0.1017E+02
  -5.503  0.3649E+00  0.1017E+02
  -5.493  0.3687E+00  0.1017E+02
  -5.483  0.3725E+00  0.1018E+02
  -5.473  0.3762E+00  0.1018E+02
  -5.463  0.3800E+00  0.1019E+02
  -5.453  0.3838E+00  0.1019E+02
  -5.443  0.3876E+00  0.1019E+02
  -5.433  0.3914E+00  0.1020E+02
  -5.423  0.3952E+00  0.1020E+02
  -5.413  0.3990E+00  0.1021E+02
  -5.403  0.4028E+00  0.1021E+02
  -5.393  0.4066E+00  0.1021E+02
  -5.383  0.4104E+00  0.1022E+02
  -5.373  0.4142E+00  0.1022E+02
  -5.363  0.4181E+00  0.1023E+02
  -5.353  0.4219E+00  0.1023E+02
  -5.343  0.4258E+00  0.1023E+02
  -5.333  0.4297E+00  0.1024E+02
  -5.323  0.4336E+00  0.1024E+02
  -5.313  0.4375E+00  0.1025E+02
  -5.303  0.4415E+00  0.1025E+02
  -5.293  0.4454E+00  0.1026E+02
  -5.283  0.4494E+00  0.1026E+02
  -5.273  0.4534E+00  0.1027E+02
  -5.263  0.4575E+00  0.1027E+02
  -5.253  0.4615E+00  0.1027E+02
  -5.243  0.4656E+00  0.1028E+02
  -5.233  0.4697E+00  0.1028E+02
  -5.223  0.4738E+00  0.1029E+02
  -5.213  0.4780E+00  0.1029E+02
  -5.203  0.4822E+00  0.1030E+02
  -5.193  0.4864E+00  0.1030E+02
  -5.183  0.4906E+00  0.1031E+02
  -5.173  0.4949E+00  0.1031E+02
  -5.163  0.4993E+00  0.1032E+02
  -5.153  0.5036E+00  0.1032E+02
  -5.143  0.5080E+00  0.1033E+02
  -5.133  0.5125E+00  0.1033E+02
  -5.123  0.5170E+00  0.1034E+02
  -5.113  0.5215E+00  0.1034E+02
  -5.103  0.5261E+00  0.1035E+02
  -5.093  0.5307E+00  0.1035E+02
  -5.083  0.5354E+00  0.1036E+02
  -5.073  0.5401E+00  0.1036E+02
  -5.063  0.5449E+00  0.1037E+02
  -5.053  0.5498E+00  0.1038E+02
  -5.043  0.5547E+00  0.1038E+02
  -5.033  0.5596E+00  0.1039E+02
  -5.023  0.5647E+00  0.1039E+02
  -5.013  0.5698E+00  0.1040E+02
  -5.003  0.5749E+00  0.1040E+02
  -4.993  0.5802E+00  0.1041E+02
  -4.983  0.5855E+00  0.1042E+02
  -4.973  0.5909E+00  0.1042E+02
  -4.963  0.5964E+00  0.1043E+02
  -4.953  0.6020E+00  0.1043E+02
  -4.943  0.6076E+00  0.1044E+02
  -4.933  0.6133E+00  0.1045E+02
  -4.923  0.6192E+00  0.1045E+02
  -4.913  0.6251E+00  0.1046E+02
  -4.903  0.6311E+00  0.1046E+02
  -4.893  0.6373E+00  0.1047E+02
  -4.883  0.6435E+00  0.1048E+02
  -4.873  0.6498E+00  0.1048E+02
  -4.863  0.6563E+00  0.1049E+02
  -4.853  0.6628E+00  0.1050E+02
  -4.843  0.6695E+00  0.1050E+02
  -4.833  0.6763E+00  0.1051E+02
  -4.823  0.6832E+00  0.1052E+02
  -4.813  0.6902E+00  0.1052E+02
  -4.803  0.6974E+00  0.1053E+02
  -4.793  0.7047E+00  0.1054E+02
  -4.783  0.7121E+00  0.1055E+02
  -4.773  0.7196E+00  0.1055E+02
  -4.763  0.7273E+00  0.1056E+02
  -4.753  0.7350E+00  0.1057E+02
  -4.743  0.7430E+00  0.1057E+02
  -4.733  0.7510E+00  0.1058E+02
  -4.723  0.7592E+00  0.1059E+02
  -4.713  0.7675E+00  0.1060E+02
  -4.703  0.7759E+00  0.1061E+02
  -4.693  0.7844E+00  0.1061E+02
  -4.683  0.7931E+00  0.1062E+02
  -4.673  0.8019E+00  0.1063E+02
  -4.663  0.8108E+00  0.1064E+02
  -4.653  0.8198E+00  0.1065E+02
  -4.643  0.8289E+00  0.1065E+02
  -4.633  0.8381E+00  0.1066E+02
  -4.623  0.8474E+00  0.1067E+02
  -4.613  0.8568E+00  0.1068E+02
  -4.603  0.8663E+00  0.1069E+02
  -4.593  0.8759E+00  0.1070E+02
  -4.583  0.8855E+00  0.1071E+02
  -4.573  0.8952E+00  0.1071E+02
  -4.563  0.9050E+00  0.1072E+02
  -4.553  0.9148E+00  0.1073E+02
  -4.543  0.9246E+00  0.1074E+02
  -4.533  0.9345E+00  0.1075E+02
  -4.523  0.9443E+00  0.1076E+02
  -4.513  0.9542E+00  0.1077E+02
  -4.503  0.9641E+00  0.1078E+02
  -4.493  0.9740E+00  0.1079E+02
  -4.483  0.9838E+00  0.1080E+02
  -4.473  0.9936E+00  0.1081E+02
  -4.463  0.1003E+01  0.1082E+02
  -4.453  0.1013E+01  0.1083E+02
  -4.443  0.1023E+01  0.1084E+02
  -4.433  0.1032E+01  0.1085E+02
  -4.423  0.1042E+01  0.1086E+02
  -4.413  0.1051E+01  0.1087E+02
  -4.403  0.1060E+01  0.1088E+02
  -4.393  0.1069E+01  0.1089E+02
  -4.383  0.1078E+01  0.1090E+02
  -4.373  0.1087E+01  0.1091E+02
  -4.363  0.1096E+01  0.1092E+02
  -4.353  0.1104E+01  0.1094E+02
  -4.343  0.1113E+01  0.1095E+02
  -4.333  0.1121E+01  0.1096E+02
  -4.323  0.1129E+01  0.1097E+02
  -4.313  0.1137E+01  0.1098E+02
  -4.303  0.1144E+01  0.1099E+02
  -4.293  0.1152E+01  0.1100E+02
  -4.283  0.1159E+01  0.1102E+02
  -4.273  0.1166E+01  0.1103E+02
  -4.263  0.1173E+01  0.1104E+02
  -4.253  0.1179E+01  0.1105E+02
  -4.243  0.1185E+01  0.1106E+02
  -4.233  0.1191E+01  0.1107E+02
  -4.223  0.1197E+01  0.1109E+02
  -4.213  0.1203E+01  0.1110E+02
  -4.203  0.1208E+01  0.1111E+02
  -4.193  0.1213E+01  0.1112E+02
  -4.183  0.1218E+01  0.1113E+02
  -4.173  0.1223E+01  0.1115E+02
  -4.163  0.1227E+01  0.1116E+02
  -4.153  0.1231E+01  0.1117E+02
  -4.143  0.1235E+01  0.1118E+02
  -4.133  0.1238E+01  0.1120E+02
  -4.123  0.1242E+01  0.1121E+02
  -4.113  0.1245E+01  0.1122E+02
  -4.103  0.1248E+01  0.1123E+02
  -4.093  0.1250E+01  0.1125E+02
  -4.083  0.1253E+01  0.1126E+02
  -4.073  0.1255E+01  0.1127E+02
  -4.063  0.1256E+01  0.1128E+02
  -4.053  0.1258E+01  0.1130E+02
  -4.043  0.1259E+01  0.1131E+02
  -4.033  0.1260E+01  0.1132E+02
  -4.023  0.1260E+01  0.1133E+02
  -4.013  0.1261E+01  0.1135E+02
  -4.003  0.1261E+01  0.1136E+02
  -3.993  0.1260E+01  0.1137E+02
  -3.983  0.1259E+01  0.1138E+02
  -3.973  0.1258E+01  0.1140E+02
  -3.963  0.1257E+01  0.1141E+02
  -3.953  0.1255E+01  0.1142E+02
  -3.943  0.1253E+01  0.1143E+02
  -3.933  0.1250E+01  0.1145E+02
  -3.923  0.1247E+01  0.1146E+02
  -3.913  0.1244E+01  0.1147E+02
  -3.903  0.1240E+01  0.1148E+02
  -3.893  0.1235E+01  0.1150E+02
  -3.883  0.1231E+01  0.1151E+02
  -3.873  0.1225E+01  0.1152E+02
  -3.863  0.1219E+01  0.1153E+02
  -3.853  0.1213E+01  0.1155E+02
  -3.843  0.1206E+01  0.1156E+02
  -3.833  0.1199E+01  0.1157E+02
  -3.823  0.1190E+01  0.1158E+02
  -3.813  0.1182E+01  0.1159E+02
  -3.803  0.1173E+01  0.1161E+02
  -3.793  0.1163E+01  0.1162E+02
  -3.783  0.1152E+01  0.1163E+02
  -3.773  0.1141E+01  0.1164E+02
  -3.763  0.1129E+01  0.1165E+02
  -3.753  0.1117E+01  0.1166E+02
  -3.743  0.1104E+01  0.1167E+02
  -3.733  0.1091E+01  0.1168E+02
  -3.723  0.1076E+01  0.1169E+02
  -3.713  0.1062E+01  0.1171E+02
  -3.703  0.1046E+01  0.1172E+02
  -3.693  0.1030E+01  0.1173E+02
  -3.683  0.1013E+01  0.1174E+02
  -3.673  0.9962E+00  0.1175E+02
  -3.663  0.9784E+00  0.1176E+02
  -3.653  0.9601E+00  0.1177E+02
  -3.643  0.9413E+00  0.1178E+02
  -3.633  0.9220E+00  0.1178E+02
  -3.623  0.9023E+00  0.1179E+02
  -3.613  0.8821E+00  0.1180E+02
  -3.603  0.8615E+00  0.1181E+02
  -3.593  0.8405E+00  0.1182E+02
  -3.583  0.8192E+00  0.1183E+02
  -3.573  0.7976E+00  0.1184E+02
  -3.563  0.7758E+00  0.1184E+02
  -3.553  0.7537E+00  0.1185E+02
  -3.543  0.7315E+00  0.1186E+02
  -3.533  0.7091E+00  0.1187E+02
  -3.523  0.6867E+00  0.1187E+02
  -3.513  0.6642E+00  0.1188E+02
  -3.503  0.6416E+00  0.1188E+02
  -3.493  0.6192E+00  0.1189E+02
  -3.483  0.5967E+00  0.1190E+02
  -3.473  0.5745E+00  0.1190E+02
  -3.463  0.5523E+00  0.1191E+02
  -3.453  0.5304E+00  0.1191E+02
  -3.443  0.5087E+00  0.1192E+02
  -3.433  0.4872E+00  0.1192E+02
  -3.423  0.4661E+00  0.1193E+02
  -3.413  0.4453E+00  0.1193E+02
  -3.403  0.4249E+00  0.1194E+02
  -3.393  0.4049E+00  0.1194E+02
  -3.383  0.3854E+00  0.1194E+02
  -3.373  0.3663E+00  0.1195E+02
  -3.363  0.3476E+00  0.1195E+02
  -3.353  0.3295E+00  0.1196E+02
  -3.343  0.3119E+00  0.1196E+02
  -3.333  0.2948E+00  0.1196E+02
  -3.323  0.2783E+00  0.1196E+02
  -3.313  0.2623E+00  0.1197E+02
  -3.303  0.2469E+00  0.1197E+02
  -3.293  0.2321E+00  0.1197E+02
  -3.283  0.2179E+00  0.1197E+02
  -3.273  0.2042E+00  0.1198E+02
  -3.263  0.1912E+00  0.1198E+02
  -3.253  0.1787E+00  0.1198E+02
  -3.243  0.1668E+00  0.1198E+02
  -3.233  0.1554E+00  0.1198E+02
  -3.223  0.1446E+00  0.1198E+02
  -3.213  0.1344E+00  0.1199E+02
  -3.203  0.1247E+00  0.1199E+02
  -3.193  0.1155E+00  0.1199E+02
  -3.183  0.1069E+00  0.1199E+02
  -3.173  0.9873E-01  0.1199E+02
  -3.163  0.9106E-01  0.1199E+02
  -3.153  0.8387E-01  0.1199E+02
  -3.143  0.7712E-01  0.1199E+02
  -3.133  0.7081E-01  0.1199E+02
  -3.123  0.6492E-01  0.1199E+02
  -3.113  0.5943E-01  0.1199E+02
  -3.103  0.5432E-01  0.1200E+02
  -3.093  0.4957E-01  0.1200E+02
  -3.083  0.4517E-01  0.1200E+02
  -3.073  0.4110E-01  0.1200E+02
  -3.063  0.3733E-01  0.1200E+02
  -3.053  0.3386E-01  0.1200E+02
  -3.043  0.3066E-01  0.1200E+02
  -3.033  0.2773E-01  0.1200E+02
  -3.023  0.2503E-01  0.1200E+02
  -3.013  0.2256E-01  0.1200E+02
  -3.003  0.2031E-01  0.1200E+02
  -2.993  0.1825E-01  0.1200E+02
  -2.983  0.1637E-01  0.1200E+02
  -2.973  0.1466E-01  0.1200E+02
  -2.963  0.1311E-01  0.1200E+02
  -2.953  0.1171E-01  0.1200E+02
  -2.943  0.1044E-01  0.1200E+02
  -2.933  0.9289E-02  0.1200E+02
  -2.923  0.8255E-02  0.1200E+02
  -2.913  0.7324E-02  0.1200E+02
  -2.903  0.6488E-02  0.1200E+02
  -2.893  0.5738E-02  0.1200E+02
  -2.883  0.5066E-02  0.1200E+02
  -2.873  0.4466E-02  0.1200E+02
  -2.863  0.3931E-02  0.1200E+02
  -2.853  0.3454E-02  0.1200E+02
  -2.843  0.3031E-02  0.1200E+02
  -2.833  0.2655E-02  0.1200E+02
  -2.823  0.2321E-02  0.1200E+02
  -2.813  0.2027E-02  0.1200E+02
  -2.803  0.1767E-02  0.1200E+02
  -2.793  0.1538E-02  0.1200E+02
  -2.783  0.1336E-02  0.1200E+02
  -2.773  0.1159E-02  0.1200E+02
  -2.763  0.1004E-02  0.1200E+02
  -2.753  0.8677E-03  0.1200E+02
  -2.743  0.7490E-03  0.1200E+02
  -2.733  0.6455E-03  0.1200E+02
  -2.723  0.5554E-03  0.1200E+02
  -2.713  0.4771E-03  0.1200E+02
  -2.703  0.4092E-03  0.1200E+02
  -2.693  0.3503E-03  0.1200E+02
  -2.683  0.2995E-03  0.1200E+02
  -2.673  0.2555E-03  0.1200E+02
  -2.663  0.2177E-03  0.1200E+02
  -2.653  0.1852E-03  0.1200E+02
  -2.643  0.1573E-03  0.1200E+02
  -2.633  0.1333E-03  0.1200E+02
  -2.623  0.1129E-03  0.1200E+02
  -2.613  0.9536E-04  0.1200E+02
  -2.603  0.8045E-04  0.1200E+02
  -2.593  0.6775E-04  0.1200E+02
  -2.583  0.5697E-04  0.1200E+02
  -2.573  0.4782E-04  0.1200E+02
  -2.563  0.4008E-04  0.1200E+02
  -2.553  0.3353E-04  0.1200E+02
  -2.543  0.2801E-04  0.1200E+02
  -2.533  0.2336E-04  0.1200E+02
  -2.523  0.1945E-04  0.1200E+02
  -2.513  0.1616E-04  0.1200E+02
  -2.503  0.1341E-04  0.1200E+02
  -2.493  0.1111E-04  0.1200E+02
  -2.483  0.9187E-05  0.1200E+02
  -2.473  0.7586E-05  0.1200E+02
  -2.463  0.6253E-05  0.1200E+02
  -2.453  0.5145E-05  0.1200E+02
  -2.443  0.4227E-05  0.1200E+02
  -2.433  0.3467E-05  0.1200E+02
  -2.423  0.2839E-05  0.1200E+02
  -2.413  0.2320E-05  0.1200E+02
  -2.403  0.1894E-05  0.1200E+02
  -2.393  0.1543E-05  0.1200E+02
  -2.383  0.1255E-05  0.1200E+02
  -2.373  0.1019E-05  0.1200E+02
  -2.363  0.8259E-06  0.1200E+02
  -2.353  0.6684E-06  0.1200E+02
  -2.343  0.5400E-06  0.1200E+02
  -2.333  0.4356E-06  0.1200E+02
  -2.323  0.3507E-06  0.1200E+02
  -2.313  0.2819E-06  0.1200E+02
  -2.303  0.2263E-06  0.1200E+02
  -2.293  0.1813E-06  0.1200E+02
  -2.283  0.1450E-06  0.1200E+02
  -2.273  0.1158E-06  0.1200E+02
  -2.263  0.9230E-07  0.1200E+02
  -2.253  0.7345E-07  0.1200E+02
  -2.243  0.5836E-07  0.1200E+02
  -2.233  0.4629E-07  0.1200E+02
  -2.223  0.3665E-07  0.1200E+02
  -2.213  0.2897E-07  0.1200E+02
  -2.203  0.2287E-07  0.1200E+02
  -2.193  0.1801E-07  0.1200E+02
  -2.183  0.1417E-07  0.1200E+02
  -2.173  0.1113E-07  0.1200E+02
  -2.163  0.8721E-08  0.1200E+02
  -2.153  0.6825E-08  0.1200E+02
  -2.143  0.5332E-08  0.1200E+02
  -2.133  0.4159E-08  0.1200E+02
  -2.123  0.3238E-08  0.1200E+02
  -2.113  0.2517E-08  0.1200E+02
  -2.103  0.1953E-08  0.1200E+02
  -2.093  0.1513E-08  0.1200E+02
  -2.083  0.1170E-08  0.1200E+02
  -2.073  0.9035E-09  0.1200E+02
  -2.063  0.6964E-09  0.1200E+02
  -2.053  0.5359E-09  0.1200E+02
  -2.043  0.4117E-09  0.1200E+02
  -2.033  0.3157E-09  0.1200E+02
  -2.023  0.2417E-09  0.1200E+02
  -2.013  0.1848E-09  0.1200E+02
  -2.003  0.1410E-09  0.1200E+02
  -1.993  0.1074E-09  0.1200E+02
  -1.983  0.8169E-10  0.1200E+02
  -1.973  0.6203E-10  0.1200E+02
  -1.963  0.4704E-10  0.1200E+02
  -1.953  0.3563E-10  0.1200E+02
  -1.943  0.2697E-10  0.1200E+02
  -1.933  0.2041E-10  0.1200E+02
  -1.923  0.1546E-10  0.1200E+02
  -1.913  0.1175E-10  0.1200E+02
  -1.903  0.8997E-11  0.1200E+02
  -1.893  0.6981E-11  0.1200E+02
  -1.883  0.5546E-11  0.1200E+02
  -1.873  0.4578E-11  0.1200E+02
  -1.863  0.3999E-11  0.1200E+02
  -1.853  0.3762E-11  0.1200E+02
  -1.843  0.3846E-11  0.1200E+02
  -1.833  0.4256E-11  0.1200E+02
  -1.823  0.5020E-11  0.1200E+02
  -1.813  0.6198E-11  0.1200E+02
  -1.803  0.7876E-11  0.1200E+02
  -1.793  0.1018E-10  0.1200E+02
  -1.783  0.1328E-10  0.1200E+02
  -1.773  0.1741E-10  0.1200E+02
  -1.763  0.2286E-10  0.1200E+02
  -1.753  0.3003E-10  0.1200E+02
  -1.743  0.3943E-10  0.1200E+02
  -1.733  0.5171E-10  0.1200E+02
  -1.723  0.6773E-10  0.1200E+02
  -1.713  0.8859E-10  0.1200E+02
  -1.703  0.1157E-09  0.1200E+02
  -1.693  0.1508E-09  0.1200E+02
  -1.683  0.1964E-09  0.1200E+02
  -1.673  0.2552E-09  0.1200E+02
  -1.663  0.3311E-09  0.1200E+02
  -1.653  0.4290E-09  0.1200E+02
  -1.643  0.5548E-09  0.1200E+02
  -1.633  0.7163E-09  0.1200E+02
  -1.623  0.9234E-09  0.1200E+02
  -1.613  0.1188E-08  0.1200E+02
  -1.603  0.1527E-08  0.1200E+02
  -1.593  0.1959E-08  0.1200E+02
  -1.583  0.2509E-08  0.1200E+02
  -1.573  0.3207E-08  0.1200E+02
  -1.563  0.4094E-08  0.1200E+02
  -1.553  0.5218E-08  0.1200E+02
  -1.543  0.6639E-08  0.1200E+02
  -1.533  0.8434E-08  0.1200E+02
  -1.523  0.1070E-07  0.1200E+02
  -1.513  0.1354E-07  0.1200E+02
  -1.503  0.1712E-07  0.1200E+02
  -1.493  0.2161E-07  0.1200E+02
  -1.483  0.2723E-07  0.1200E+02
  -1.473  0.3426E-07  0.1200E+02
  -1.463  0.4302E-07  0.1200E+02
  -1.453  0.5395E-07  0.1200E+02
  -1.443  0.6755E-07  0.1200E+02
  -1.433  0.8443E-07  0.1200E+02
  -1.423  0.1054E-06  0.1200E+02
  -1.413  0.1313E-06  0.1200E+02
  -1.403  0.1633E-06  0.1200E+02
  -1.393  0.2028E-06  0.1200E+02
  -1.383  0.2515E-06  0.1200E+02
  -1.373  0.3113E-06  0.1200E+02
  -1.363  0.3848E-06  0.1200E+02
  -1.353  0.4749E-06  0.1200E+02
  -1.343  0.5851E-06  0.1200E+02
  -1.333  0.7197E-06  0.1200E+02
  -1.323  0.8840E-06  0.1200E+02
  -1.313  0.1084E-05  0.1200E+02
  -1.303  0.1327E-05  0.1200E+02
  -1.293  0.1622E-05  0.1200E+02
  -1.283  0.1980E-05  0.1200E+02
  -1.273  0.2412E-05  0.1200E+02
  -1.263  0.2935E-05  0.1200E+02
  -1.253  0.3565E-05  0.1200E+02
  -1.243  0.4323E-05  0.1200E+02
  -1.233  0.5234E-05  0.1200E+02
  -1.223  0.6328E-05  0.1200E+02
  -1.213  0.7639E-05  0.1200E+02
  -1.203  0.9206E-05  0.1200E+02
  -1.193  0.1108E-04  0.1200E+02
  -1.183  0.1331E-04  0.1200E+02
  -1.173  0.1596E-04  0.1200E+02
  -1.163  0.1912E-04  0.1200E+02
  -1.153  0.2286E-04  0.1200E+02
  -1.143  0.2730E-04  0.1200E+02
  -1.133  0.3255E-04  0.1200E+02
  -1.123  0.3874E-04  0.1200E+02
  -1.113  0.4604E-04  0.1200E+02
  -1.103  0.5463E-04  0.1200E+02
  -1.093  0.6473E-04  0.1200E+02
  -1.083  0.7658E-04  0.1200E+02
  -1.073  0.9045E-04  0.1200E+02
  -1.063  0.1067E-03  0.1200E+02
  -1.053  0.1256E-03  0.1200E+02
  -1.043  0.1477E-03  0.1200E+02
  -1.033  0.1734E-03  0.1200E+02
  -1.023  0.2033E-03  0.1200E+02
  -1.013  0.2379E-03  0.1200E+02
  -1.003  0.2781E-03  0.1200E+02
  -0.993  0.3245E-03  0.1200E+02
  -0.983  0.3781E-03  0.1200E+02
  -0.973  0.4398E-03  0.1200E+02
  -0.963  0.5109E-03  0.1200E+02
  -0.953  0.5926E-03  0.1200E+02
  -0.943  0.6864E-03  0.1200E+02
  -0.933  0.7938E-03  0.1200E+02
  -0.923  0.9166E-03  0.1200E+02
  -0.913  0.1057E-02  0.1200E+02
  -0.903  0.1217E-02  0.1200E+02
  -0.893  0.1399E-02  0.1200E+02
  -0.883  0.1606E-02  0.1200E+02
  -0.873  0.1841E-02  0.1200E+02
  -0.863  0.2107E-02  0.1200E+02
  -0.853  0.2407E-02  0.1200E+02
  -0.843  0.2747E-02  0.1200E+02
  -0.833  0.3131E-02  0.1200E+02
  -0.823  0.3562E-02  0.1200E+02
  -0.813  0.4047E-02  0.1200E+02
  -0.803  0.4592E-02  0.1200E+02
  -0.793  0.5202E-02  0.1200E+02
  -0.783  0.5884E-02  0.1200E+02
  -0.773  0.6647E-02  0.1200E+02
  -0.763  0.7497E-02  0.1200E+02
  -0.753  0.8444E-02  0.1200E+02
  -0.743  0.9498E-02  0.1200E+02
  -0.733  0.1067E-01  0.1200E+02
  -0.723  0.1196E-01  0.1200E+02
  -0.713  0.1340E-01  0.1200E+02
  -0.703  0.1498E-01  0.1200E+02
  -0.693  0.1673E-01  0.1200E+02
  -0.683  0.1866E-01  0.1200E+02
  -0.673  0.2077E-01  0.1200E+02
  -0.663  0.2310E-01  0.1200E+02
  -0.653  0.2565E-01  0.1200E+02
  -0.643  0.2844E-01  0.1200E+02
  -0.633  0.3149E-01  0.1200E+02
  -0.623  0.3482E-01  0.1200E+02
  -0.613  0.3844E-01  0.1200E+02
  -0.603  0.4239E-01  0.1200E+02
  -0.593  0.4667E-01  0.1200E+02
  -0.583  0.5131E-01  0.1201E+02
  -0.573  0.5634E-01  0.1201E+02
  -0.563  0.6178E-01  0.1201E+02
  -0.553  0.6764E-01  0.1201E+02
  -0.543  0.7396E-01  0.1201E+02
  -0.533  0.8075E-01  0.1201E+02
  -0.523  0.8805E-01  0.1201E+02
  -0.513  0.9588E-01  0.1201E+02
  -0.503  0.1043E+00  0.1201E+02
  -0.493  0.1132E+00  0.1201E+02
  -0.483  0.1228E+00  0.1201E+02
  -0.473  0.1330E+00  0.1202E+02
  -0.463  0.1438E+00  0.1202E+02
  -0.453  0.1553E+00  0.1202E+02
  -0.443  0.1675E+00  0.1202E+02
  -0.433  0.1804E+00  0.1202E+02
  -0.423  0.1940E+00  0.1202E+02
  -0.413  0.2084E+00  0.1203E+02
  -0.403  0.2235E+00  0.1203E+02
  -0.393  0.2394E+00  0.1203E+02
  -0.383  0.2561E+00  0.1203E+02
  -0.373  0.2736E+00  0.1204E+02
  -0.363  0.2919E+00  0.1204E+02
  -0.353  0.3110E+00  0.1204E+02
  -0.343  0.3310E+00  0.1204E+02
  -0.333  0.3517E+00  0.1205E+02
  -0.323  0.3732E+00  0.1205E+02
  -0.313  0.3955E+00  0.1206E+02
  -0.303  0.4186E+00  0.1206E+02
  -0.293  0.4425E+00  0.1206E+02
  -0.283  0.4671E+00  0.1207E+02
  -0.273  0.4924E+00  0.1207E+02
  -0.263  0.5184E+00  0.1208E+02
  -0.253  0.5451E+00  0.1208E+02
  -0.243  0.5724E+00  0.1209E+02
  -0.233  0.6002E+00  0.1210E+02
  -0.223  0.6286E+00  0.1210E+02
  -0.213  0.6575E+00  0.1211E+02
  -0.203  0.6869E+00  0.1212E+02
  -0.193  0.7166E+00  0.1212E+02
  -0.183  0.7466E+00  0.1213E+02
  -0.173  0.7769E+00  0.1214E+02
  -0.163  0.8074E+00  0.1215E+02
  -0.153  0.8381E+00  0.1216E+02
  -0.143  0.8687E+00  0.1216E+02
  -0.133  0.8994E+00  0.1217E+02
  -0.123  0.9300E+00  0.1218E+02
  -0.113  0.9604E+00  0.1219E+02
  -0.103  0.9906E+00  0.1220E+02
  -0.093  0.1020E+01  0.1221E+02
  -0.083  0.1050E+01  0.1222E+02
  -0.073  0.1079E+01  0.1223E+02
  -0.063  0.1107E+01  0.1224E+02
  -0.053  0.1135E+01  0.1226E+02
  -0.043  0.1162E+01  0.1227E+02
  -0.033  0.1189E+01  0.1228E+02
  -0.023  0.1214E+01  0.1229E+02
  -0.013  0.1238E+01  0.1230E+02
  -0.003  0.1262E+01  0.1232E+02
   0.007  0.1285E+01  0.1233E+02
   0.017  0.1306E+01  0.1234E+02
   0.027  0.1326E+01  0.1236E+02
   0.037  0.1345E+01  0.1237E+02
   0.047  0.1363E+01  0.1238E+02
   0.057  0.1379E+01  0.1240E+02
   0.067  0.1394E+01  0.1241E+02
   0.077  0.1408E+01  0.1242E+02
   0.087  0.1420E+01  0.1244E+02
   0.097  0.1431E+01  0.1245E+02
   0.107  0.1441E+01  0.1247E+02
   0.117  0.1449E+01  0.1248E+02
   0.127  0.1455E+01  0.1250E+02
   0.137  0.1460E+01  0.1251E+02
   0.147  0.1464E+01  0.1253E+02
   0.157  0.1466E+01  0.1254E+02
   0.167  0.1467E+01  0.1255E+02
   0.177  0.1467E+01  0.1257E+02
   0.187  0.1465E+01  0.1258E+02
   0.197  0.1462E+01  0.1260E+02
   0.207  0.1457E+01  0.1261E+02
   0.217  0.1452E+01  0.1263E+02
   0.227  0.1445E+01  0.1264E+02
   0.237  0.1437E+01  0.1266E+02
   0.247  0.1428E+01  0.1267E+02
   0.257  0.1418E+01  0.1269E+02
   0.267  0.1407E+01  0.1270E+02
   0.277  0.1395E+01  0.1271E+02
   0.287  0.1382E+01  0.1273E+02
   0.297  0.1368E+01  0.1274E+02
   0.307  0.1354E+01  0.1275E+02
   0.317  0.1339E+01  0.1277E+02
   0.327  0.1323E+01  0.1278E+02
   0.337  0.1307E+01  0.1279E+02
   0.347  0.1290E+01  0.1281E+02
   0.357  0.1273E+01  0.1282E+02
   0.367  0.1256E+01  0.1283E+02
   0.377  0.1238E+01  0.1284E+02
   0.387  0.1220E+01  0.1286E+02
   0.397  0.1202E+01  0.1287E+02
   0.407  0.1183E+01  0.1288E+02
   0.417  0.1165E+01  0.1289E+02
   0.427  0.1146E+01  0.1290E+02
   0.437  0.1128E+01  0.1291E+02
   0.447  0.1109E+01  0.1293E+02
   0.457  0.1091E+01  0.1294E+02
   0.467  0.1073E+01  0.1295E+02
   0.477  0.1055E+01  0.1296E+02
   0.487  0.1037E+01  0.1297E+02
   0.497  0.1019E+01  0.1298E+02
   0.507  0.1001E+01  0.1299E+02
   0.517  0.9840E+00  0.1300E+02
   0.527  0.9670E+00  0.1301E+02
   0.537  0.9503E+00  0.1302E+02
   0.547  0.9339E+00  0.1303E+02
   0.557  0.9178E+00  0.1304E+02
   0.567  0.9021E+00  0.1305E+02
   0.577  0.8867E+00  0.1305E+02
   0.587  0.8716E+00  0.1306E+02
   0.597  0.8569E+00  0.1307E+02
   0.607  0.8426E+00  0.1308E+02
   0.617  0.8286E+00  0.1309E+02
   0.627  0.8149E+00  0.1310E+02
   0.637  0.8017E+00  0.1310E+02
   0.647  0.7888E+00  0.1311E+02
   0.657  0.7762E+00  0.1312E+02
   0.667  0.7640E+00  0.1313E+02
   0.677  0.7521E+00  0.1314E+02
   0.687  0.7406E+00  0.1314E+02
   0.697  0.7293E+00  0.1315E+02
   0.707  0.7184E+00  0.1316E+02
   0.717  0.7079E+00  0.1316E+02
   0.727  0.6976E+00  0.1317E+02
   0.737  0.6876E+00  0.1318E+02
   0.747  0.6779E+00  0.1318E+02
   0.757  0.6685E+00  0.1319E+02
   0.767  0.6594E+00  0.1320E+02
   0.777  0.6505E+00  0.1320E+02
   0.787  0.6418E+00  0.1321E+02
   0.797  0.6334E+00  0.1322E+02
   0.807  0.6253E+00  0.1322E+02
   0.817  0.6173E+00  0.1323E+02
   0.827  0.6096E+00  0.1324E+02
   0.837  0.6021E+00  0.1324E+02
   0.847  0.5948E+00  0.1325E+02
   0.857  0.5877E+00  0.1325E+02
   0.867  0.5808E+00  0.1326E+02
   0.877  0.5740E+00  0.1327E+02
   0.887  0.5674E+00  0.1327E+02
   0.897  0.5610E+00  0.1328E+02
   0.907  0.5547E+00  0.1328E+02
   0.917  0.5486E+00  0.1329E+02
   0.927  0.5426E+00  0.1329E+02
   0.937  0.5368E+00  0.1330E+02
   0.947  0.5311E+00  0.1330E+02
   0.957  0.5255E+00  0.1331E+02
   0.967  0.5201E+00  0.1331E+02
   0.977  0.5147E+00  0.1332E+02
   0.987  0.5095E+00  0.1332E+02
   0.997  0.5044E+00  0.1333E+02
   1.007  0.4994E+00  0.1333E+02
   1.017  0.4945E+00  0.1334E+02
   1.027  0.4897E+00  0.1334E+02
   1.037  0.4850E+00  0.1335E+02
   1.047  0.4804E+00  0.1335E+02
   1.057  0.4758E+00  0.1336E+02
   1.067  0.4714E+00  0.1336E+02
   1.077  0.4670E+00  0.1337E+02
   1.087  0.4628E+00  0.1337E+02
   1.097  0.4586E+00  0.1338E+02
   1.107  0.4544E+00  0.1338E+02
   1.117  0.4504E+00  0.1339E+02
   1.127  0.4464E+00  0.1339E+02
   1.137  0.4424E+00  0.1340E+02
   1.147  0.4386E+00  0.1340E+02
   1.157  0.4348E+00  0.1340E+02
   1.167  0.4310E+00  0.1341E+02
   1.177  0.4273E+00  0.1341E+02
   1.187  0.4237E+00  0.1342E+02
   1.197  0.4201E+00  0.1342E+02
   1.207  0.4166E+00  0.1343E+02
   1.217  0.4131E+00  0.1343E+02
   1.227  0.4097E+00  0.1343E+02
   1.237  0.4063E+00  0.1344E+02
   1.247  0.4029E+00  0.1344E+02
   1.257  0.3996E+00  0.1345E+02
   1.267  0.3964E+00  0.1345E+02
   1.277  0.3932E+00  0.1345E+02
   1.287  0.3900E+00  0.1346E+02
   1.297  0.3869E+00  0.1346E+02
   1.307  0.3838E+00  0.1346E+02
   1.317  0.3807E+00  0.1347E+02
   1.327  0.3777E+00  0.1347E+02
   1.337  0.3747E+00  0.1348E+02
   1.347  0.3718E+00  0.1348E+02
   1.357  0.3689E+00  0.1348E+02
   1.367  0.3660E+00  0.1349E+02
   1.377  0.3632E+00  0.1349E+02
   1.387  0.3604E+00  0.1349E+02
   1.397  0.3576E+00  0.1350E+02
   1.407  0.3549E+00  0.1350E+02
   1.417  0.3522E+00  0.1351E+02
   1.427  0.3496E+00  0.1351E+02
   1.437  0.3469E+00  0.1351E+02
   1.447  0.3443E+00  0.1352E+02
   1.457  0.3418E+00  0.1352E+02
   1.467  0.3393E+00  0.1352E+02
   1.477  0.3368E+00  0.1353E+02
   1.487  0.3343E+00  0.1353E+02
   1.497  0.3319E+00  0.1353E+02
   1.507  0.3295E+00  0.1354E+02
   1.517  0.3271E+00  0.1354E+02
   1.527  0.3248E+00  0.1354E+02
   1.537  0.3225E+00  0.1355E+02
   1.547  0.3202E+00  0.1355E+02
   1.557  0.3180E+00  0.1355E+02
   1.567  0.3157E+00  0.1355E+02
   1.577  0.3135E+00  0.1356E+02
   1.587  0.3113E+00  0.1356E+02
   1.597  0.3092E+00  0.1356E+02
   1.607  0.3071E+00  0.1357E+02
   1.617  0.3049E+00  0.1357E+02
   1.627  0.3028E+00  0.1357E+02
   1.637  0.3008E+00  0.1358E+02
   1.647  0.2987E+00  0.1358E+02
   1.657  0.2967E+00  0.1358E+02
   1.667  0.2946E+00  0.1359E+02
   1.677  0.2926E+00  0.1359E+02
   1.687  0.2906E+00  0.1359E+02
   1.697  0.2886E+00  0.1359E+02
   1.707  0.2866E+00  0.1360E+02
   1.717  0.2847E+00  0.1360E+02
   1.727  0.2827E+00  0.1360E+02
   1.737  0.2808E+00  0.1361E+02
   1.747  0.2789E+00  0.1361E+02
   1.757  0.2769E+00  0.1361E+02
   1.767  0.2750E+00  0.1361E+02
   1.777  0.2732E+00  0.1362E+02
   1.787  0.2713E+00  0.1362E+02
   1.797  0.2694E+00  0.1362E+02
   1.807  0.2676E+00  0.1362E+02
   1.817  0.2657E+00  0.1363E+02
   1.827  0.2639E+00  0.1363E+02
   1.837  0.2621E+00  0.1363E+02
   1.847  0.2603E+00  0.1364E+02
   1.857  0.2586E+00  0.1364E+02
   1.867  0.2569E+00  0.1364E+02
   1.877  0.2551E+00  0.1364E+02
   1.887  0.2535E+00  0.1365E+02
   1.897  0.2518E+00  0.1365E+02
   1.907  0.2502E+00  0.1365E+02
   1.917  0.2486E+00  0.1365E+02
   1.927  0.2470E+00  0.1366E+02
   1.937  0.2455E+00  0.1366E+02
   1.947  0.2440E+00  0.1366E+02
   1.957  0.2425E+00  0.1366E+02
   1.967  0.2411E+00  0.1367E+02
   1.977  0.2397E+00  0.1367E+02
   1.987  0.2384E+00  0.1367E+02
   1.997  0.2371E+00  0.1367E+02
   2.007  0.2358E+00  0.1367E+02
   2.017  0.2346E+00  0.1368E+02
   2.027  0.2335E+00  0.1368E+02
   2.037  0.2324E+00  0.1368E+02
   2.047  0.2313E+00  0.1368E+02
   2.057  0.2304E+00  0.1369E+02
   2.067  0.2295E+00  0.1369E+02
   2.077  0.2286E+00  0.1369E+02
   2.087  0.2278E+00  0.1369E+02
   2.097  0.2271E+00  0.1370E+02
   2.107  0.2265E+00  0.1370E+02
   2.117  0.2260E+00  0.1370E+02
   2.127  0.2255E+00  0.1370E+02
   2.137  0.2252E+00  0.1370E+02
   2.147  0.2249E+00  0.1371E+02
   2.157  0.2248E+00  0.1371E+02
   2.167  0.2247E+00  0.1371E+02
   2.177  0.2248E+00  0.1371E+02
   2.187  0.2250E+00  0.1372E+02
   2.197  0.2254E+00  0.1372E+02
   2.207  0.2259E+00  0.1372E+02
   2.217  0.2265E+00  0.1372E+02
   2.227  0.2274E+00  0.1372E+02
   2.237  0.2283E+00  0.1373E+02
   2.247  0.2295E+00  0.1373E+02
   2.257  0.2309E+00  0.1373E+02
   2.267  0.2325E+00  0.1373E+02
   2.277  0.2343E+00  0.1374E+02
   2.287  0.2363E+00  0.1374E+02
   2.297  0.2386E+00  0.1374E+02
   2.307  0.2412E+00  0.1374E+02
   2.317  0.2440E+00  0.1375E+02
   2.327  0.2471E+00  0.1375E+02
   2.337  0.2505E+00  0.1375E+02
   2.347  0.2542E+00  0.1375E+02
   2.357  0.2582E+00  0.1376E+02
   2.367  0.2626E+00  0.1376E+02
   2.377  0.2673E+00  0.1376E+02
   2.387  0.2724E+00  0.1376E+02
   2.397  0.2779E+00  0.1377E+02
   2.407  0.2837E+00  0.1377E+02
   2.417  0.2900E+00  0.1377E+02
   2.427  0.2966E+00  0.1378E+02
   2.437  0.3036E+00  0.1378E+02
   2.447  0.3111E+00  0.1378E+02
   2.457  0.3190E+00  0.1378E+02
   2.467  0.3273E+00  0.1379E+02
   2.477  0.3361E+00  0.1379E+02
   2.487  0.3453E+00  0.1379E+02
   2.497  0.3549E+00  0.1380E+02
   2.507  0.3649E+00  0.1380E+02
   2.517  0.3754E+00  0.1381E+02
   2.527  0.3863E+00  0.1381E+02
   2.537  0.3977E+00  0.1381E+02
   2.547  0.4094E+00  0.1382E+02
   2.557  0.4215E+00  0.1382E+02
   2.567  0.4341E+00  0.1383E+02
   2.577  0.4470E+00  0.1383E+02
   2.587  0.4603E+00  0.1384E+02
   2.597  0.4739E+00  0.1384E+02
   2.607  0.4879E+00  0.1384E+02
   2.617  0.5022E+00  0.1385E+02
   2.627  0.5168E+00  0.1386E+02
   2.637  0.5316E+00  0.1386E+02
   2.647  0.5467E+00  0.1387E+02
   2.657  0.5620E+00  0.1387E+02
   2.667  0.5776E+00  0.1388E+02
   2.677  0.5932E+00  0.1388E+02
   2.687  0.6090E+00  0.1389E+02
   2.697  0.6250E+00  0.1390E+02
   2.707  0.6410E+00  0.1390E+02
   2.717  0.6570E+00  0.1391E+02
   2.727  0.6731E+00  0.1392E+02
   2.737  0.6892E+00  0.1392E+02
   2.747  0.7052E+00  0.1393E+02
   2.757  0.7212E+00  0.1394E+02
   2.767  0.7370E+00  0.1394E+02
   2.777  0.7527E+00  0.1395E+02
   2.787  0.7683E+00  0.1396E+02
   2.797  0.7836E+00  0.1397E+02
   2.807  0.7988E+00  0.1397E+02
   2.817  0.8137E+00  0.1398E+02
   2.827  0.8283E+00  0.1399E+02
   2.837  0.8426E+00  0.1400E+02
   2.847  0.8566E+00  0.1401E+02
   2.857  0.8702E+00  0.1402E+02
   2.867  0.8835E+00  0.1403E+02
   2.877  0.8964E+00  0.1403E+02
   2.887  0.9089E+00  0.1404E+02
   2.897  0.9210E+00  0.1405E+02
   2.907  0.9327E+00  0.1406E+02
   2.917  0.9439E+00  0.1407E+02
   2.927  0.9546E+00  0.1408E+02
   2.937  0.9650E+00  0.1409E+02
   2.947  0.9748E+00  0.1410E+02
   2.957  0.9842E+00  0.1411E+02
   2.967  0.9931E+00  0.1412E+02
   2.977  0.1002E+01  0.1413E+02
   2.987  0.1010E+01  0.1414E+02
   2.997  0.1017E+01  0.1415E+02
   3.007  0.1024E+01  0.1416E+02
   3.017  0.1031E+01  0.1417E+02
   3.027  0.1037E+01  0.1418E+02
   3.037  0.1043E+01  0.1419E+02
   3.047  0.1048E+01  0.1420E+02
   3.057  0.1053E+01  0.1421E+02
   3.067  0.1058E+01  0.1422E+02
   3.077  0.1062E+01  0.1423E+02
   3.087  0.1066E+01  0.1425E+02
   3.097  0.1069E+01  0.1426E+02
   3.107  0.1072E+01  0.1427E+02
   3.117  0.1075E+01  0.1428E+02
   3.127  0.1077E+01  0.1429E+02
   3.137  0.1080E+01  0.1430E+02
   3.147  0.1082E+01  0.1431E+02
   3.157  0.1083E+01  0.1432E+02
   3.167  0.1085E+01  0.1433E+02
   3.177  0.1086E+01  0.1434E+02
   3.187  0.1087E+01  0.1435E+02
   3.197  0.1088E+01  0.1436E+02
   3.207  0.1089E+01  0.1437E+02
   3.217  0.1090E+01  0.1439E+02
   3.227  0.1091E+01  0.1440E+02
   3.237  0.1091E+01  0.1441E+02
   3.247  0.1091E+01  0.1442E+02
   3.257  0.1092E+01  0.1443E+02
   3.267  0.1092E+01  0.1444E+02
   3.277  0.1092E+01  0.1445E+02
   3.287  0.1093E+01  0.1446E+02
   3.297  0.1093E+01  0.1447E+02
   3.307  0.1093E+01  0.1448E+02
   3.317  0.1093E+01  0.1449E+02
   3.327  0.1093E+01  0.1451E+02
   3.337  0.1094E+01  0.1452E+02
   3.347  0.1094E+01  0.1453E+02
   3.357  0.1094E+01  0.1454E+02
   3.367  0.1095E+01  0.1455E+02
   3.377  0.1095E+01  0.1456E+02
   3.387  0.1096E+01  0.1457E+02
   3.397  0.1097E+01  0.1458E+02
   3.407  0.1097E+01  0.1459E+02
   3.417  0.1098E+01  0.1460E+02
   3.427  0.1099E+01  0.1462E+02
   3.437  0.1101E+01  0.1463E+02
   3.447  0.1102E+01  0.1464E+02
   3.457  0.1103E+01  0.1465E+02
   3.467  0.1105E+01  0.1466E+02
   3.477  0.1106E+01  0.1467E+02
   3.487  0.1108E+01  0.1468E+02
   3.497  0.1110E+01  0.1469E+02
   3.507  0.1113E+01  0.1470E+02
   3.517  0.1115E+01  0.1472E+02
   3.527  0.1117E+01  0.1473E+02
   3.537  0.1120E+01  0.1474E+02
   3.547  0.1123E+01  0.1475E+02
   3.557  0.1126E+01  0.1476E+02
   3.567  0.1129E+01  0.1477E+02
   3.577  0.1133E+01  0.1478E+02
   3.587  0.1136E+01  0.1479E+02
   3.597  0.1140E+01  0.1481E+02
   3.607  0.1144E+01  0.1482E+02
   3.617  0.1148E+01  0.1483E+02
   3.627  0.1152E+01  0.1484E+02
   3.637  0.1157E+01  0.1485E+02
   3.647  0.1161E+01  0.1486E+02
   3.657  0.1166E+01  0.1487E+02
   3.667  0.1171E+01  0.1489E+02
   3.677  0.1176E+01  0.1490E+02
   3.687  0.1182E+01  0.1491E+02
   3.697  0.1187E+01  0.1492E+02
   3.707  0.1193E+01  0.1493E+02
   3.717  0.1198E+01  0.1495E+02
   3.727  0.1204E+01  0.1496E+02
   3.737  0.1210E+01  0.1497E+02
   3.747  0.1216E+01  0.1498E+02
   3.757  0.1222E+01  0.1499E+02
   3.767  0.1229E+01  0.1501E+02
   3.777  0.1235E+01  0.1502E+02
   3.787  0.1241E+01  0.1503E+02
   3.797  0.1248E+01  0.1504E+02
   3.807  0.1254E+01  0.1506E+02
   3.817  0.1261E+01  0.1507E+02
   3.827  0.1268E+01  0.1508E+02
   3.837  0.1274E+01  0.1509E+02
   3.847  0.1281E+01  0.1511E+02
   3.857  0.1288E+01  0.1512E+02
   3.867  0.1294E+01  0.1513E+02
   3.877  0.1301E+01  0.1515E+02
   3.887  0.1308E+01  0.1516E+02
   3.897  0.1314E+01  0.1517E+02
   3.907  0.1321E+01  0.1519E+02
   3.917  0.1327E+01  0.1520E+02
   3.927  0.1333E+01  0.1521E+02
   3.937  0.1340E+01  0.1523E+02
   3.947  0.1346E+01  0.1524E+02
   3.957  0.1352E+01  0.1525E+02
   3.967  0.1358E+01  0.1527E+02
   3.977  0.1364E+01  0.1528E+02
   3.987  0.1370E+01  0.1529E+02
   3.997  0.1375E+01  0.1531E+02
   4.007  0.1381E+01  0.1532E+02
   4.017  0.1386E+01  0.1533E+02
   4.027  0.1391E+01  0.1535E+02
   4.037  0.1396E+01  0.1536E+02
   4.047  0.1401E+01  0.1538E+02
   4.057  0.1405E+01  0.1539E+02
   4.067  0.1409E+01  0.1540E+02
   4.077  0.1414E+01  0.1542E+02
   4.087  0.1418E+01  0.1543E+02
   4.097  0.1421E+01  0.1545E+02
   4.107  0.1425E+01  0.1546E+02
   4.117  0.1428E+01  0.1548E+02
   4.127  0.1431E+01  0.1549E+02
   4.137  0.1434E+01  0.1550E+02
   4.147  0.1437E+01  0.1552E+02
   4.157  0.1440E+01  0.1553E+02
   4.167  0.1442E+01  0.1555E+02
   4.177  0.1444E+01  0.1556E+02
   4.187  0.1446E+01  0.1558E+02
   4.197  0.1448E+01  0.1559E+02
   4.207  0.1449E+01  0.1561E+02
   4.217  0.1451E+01  0.1562E+02
   4.227  0.1452E+01  0.1563E+02
   4.237  0.1453E+01  0.1565E+02
   4.247  0.1453E+01  0.1566E+02
   4.257  0.1454E+01  0.1568E+02
   4.267  0.1454E+01  0.1569E+02
   4.277  0.1454E+01  0.1571E+02
   4.287  0.1454E+01  0.1572E+02
   4.297  0.1454E+01  0.1574E+02
   4.307  0.1454E+01  0.1575E+02
   4.317  0.1454E+01  0.1577E+02
   4.327  0.1453E+01  0.1578E+02
   4.337  0.1452E+01  0.1579E+02
   4.347  0.1452E+01  0.1581E+02
   4.357  0.1451E+01  0.1582E+02
   4.367  0.1450E+01  0.1584E+02
   4.377  0.1448E+01  0.1585E+02
   4.387  0.1447E+01  0.1587E+02
   4.397  0.1446E+01  0.1588E+02
   4.407  0.1444E+01  0.1590E+02
   4.417  0.1443E+01  0.1591E+02
   4.427  0.1441E+01  0.1592E+02
   4.437  0.1439E+01  0.1594E+02
   4.447  0.1438E+01  0.1595E+02
   4.457  0.1436E+01  0.1597E+02
   4.467  0.1434E+01  0.1598E+02
   4.477  0.1432E+01  0.1600E+02
   4.487  0.1430E+01  0.1601E+02
   4.497  0.1428E+01  0.1602E+02
   4.507  0.1426E+01  0.1604E+02
   4.517  0.1424E+01  0.1605E+02
   4.527  0.1422E+01  0.1607E+02
   4.537  0.1419E+01  0.1608E+02
   4.547  0.1417E+01  0.1610E+02
   4.557  0.1415E+01  0.1611E+02
   4.567  0.1413E+01  0.1612E+02
   4.577  0.1411E+01  0.1614E+02
   4.587  0.1409E+01  0.1615E+02
   4.597  0.1406E+01  0.1617E+02
   4.607  0.1404E+01  0.1618E+02
   4.617  0.1402E+01  0.1619E+02
   4.627  0.1400E+01  0.1621E+02
   4.637  0.1397E+01  0.1622E+02
   4.647  0.1395E+01  0.1624E+02
   4.657  0.1393E+01  0.1625E+02
   4.667  0.1391E+01  0.1626E+02
   4.677  0.1389E+01  0.1628E+02
   4.687  0.1387E+01  0.1629E+02
   4.697  0.1384E+01  0.1631E+02
   4.707  0.1382E+01  0.1632E+02
   4.717  0.1380E+01  0.1633E+02
   4.727  0.1378E+01  0.1635E+02
   4.737  0.1376E+01  0.1636E+02
   4.747  0.1374E+01  0.1637E+02
   4.757  0.1371E+01  0.1639E+02
   4.767  0.1369E+01  0.1640E+02
   4.777  0.1367E+01  0.1642E+02
   4.787  0.1365E+01  0.1643E+02
   4.797  0.1363E+01  0.1644E+02
   4.807  0.1360E+01  0.1646E+02
   4.817  0.1358E+01  0.1647E+02
   4.827  0.1356E+01  0.1648E+02
   4.837  0.1354E+01  0.1650E+02
   4.847  0.1351E+01  0.1651E+02
   4.857  0.1349E+01  0.1652E+02
   4.867  0.1347E+01  0.1654E+02
   4.877  0.1344E+01  0.1655E+02
   4.887  0.1342E+01  0.1656E+02
   4.897  0.1339E+01  0.1658E+02
   4.907  0.1337E+01  0.1659E+02
   4.917  0.1334E+01  0.1660E+02
   4.927  0.1332E+01  0.1662E+02
   4.937  0.1329E+01  0.1663E+02
   4.947  0.1327E+01  0.1664E+02
   4.957  0.1324E+01  0.1666E+02
   4.967  0.1321E+01  0.1667E+02
   4.977  0.1319E+01  0.1668E+02
   4.987  0.1316E+01  0.1670E+02
   4.997  0.1313E+01  0.1671E+02
   5.007  0.1311E+01  0.1672E+02
   5.017  0.1308E+01  0.1674E+02
   5.027  0.1305E+01  0.1675E+02
   5.037  0.1302E+01  0.1676E+02
   5.047  0.1299E+01  0.1678E+02
   5.057  0.1297E+01  0.1679E+02
   5.067  0.1294E+01  0.1680E+02
   5.077  0.1291E+01  0.1681E+02
   5.087  0.1288E+01  0.1683E+02
   5.097  0.1285E+01  0.1684E+02
   5.107  0.1282E+01  0.1685E+02
   5.117  0.1279E+01  0.1687E+02
   5.127  0.1276E+01  0.1688E+02
   5.137  0.1273E+01  0.1689E+02
   5.147  0.1270E+01  0.1690E+02
   5.157  0.1267E+01  0.1692E+02
   5.167  0.1264E+01  0.1693E+02
   5.177  0.1261E+01  0.1694E+02
   5.187  0.1258E+01  0.1695E+02
   5.197  0.1255E+01  0.1697E+02
   5.207  0.1251E+01  0.1698E+02
   5.217  0.1248E+01  0.1699E+02
   5.227  0.1244E+01  0.1700E+02
   5.237  0.1241E+01  0.1702E+02
   5.247  0.1237E+01  0.1703E+02
   5.257  0.1234E+01  0.1704E+02
   5.267  0.1230E+01  0.1705E+02
   5.277  0.1226E+01  0.1707E+02
   5.287  0.1222E+01  0.1708E+02
   5.297  0.1218E+01  0.1709E+02
   5.307  0.1213E+01  0.1710E+02
   5.317  0.1209E+01  0.1712E+02
   5.327  0.1204E+01  0.1713E+02
   5.337  0.1200E+01  0.1714E+02
   5.347  0.1195E+01  0.1715E+02
   5.357  0.1190E+01  0.1716E+02
   5.367  0.1184E+01  0.1717E+02
   5.377  0.1179E+01  0.1719E+02
   5.387  0.1173E+01  0.1720E+02
   5.397  0.1167E+01  0.1721E+02
   5.407  0.1161E+01  0.1722E+02
   5.417  0.1155E+01  0.1723E+02
   5.427  0.1148E+01  0.1724E+02
   5.437  0.1141E+01  0.1726E+02
   5.447  0.1134E+01  0.1727E+02
   5.457  0.1127E+01  0.1728E+02
   5.467  0.1120E+01  0.1729E+02
   5.477  0.1112E+01  0.1730E+02
   5.487  0.1104E+01  0.1731E+02
   5.497  0.1096E+01  0.1732E+02
   5.507  0.1088E+01  0.1733E+02
   5.517  0.1079E+01  0.1734E+02
   5.527  0.1071E+01  0.1736E+02
   5.537  0.1062E+01  0.1737E+02
   5.547  0.1053E+01  0.1738E+02
   5.557  0.1043E+01  0.1739E+02
   5.567  0.1034E+01  0.1740E+02
   5.577  0.1024E+01  0.1741E+02
   5.587  0.1014E+01  0.1742E+02
   5.597  0.1004E+01  0.1743E+02
   5.607  0.9943E+00  0.1744E+02
   5.617  0.9841E+00  0.1745E+02
   5.627  0.9737E+00  0.1746E+02
   5.637  0.9632E+00  0.1747E+02
   5.647  0.9526E+00  0.1748E+02
   5.657  0.9420E+00  0.1749E+02
   5.667  0.9312E+00  0.1750E+02
   5.677  0.9204E+00  0.1750E+02
   5.687  0.9095E+00  0.1751E+02
   5.697  0.8985E+00  0.1752E+02
   5.707  0.8875E+00  0.1753E+02
   5.717  0.8765E+00  0.1754E+02
   5.727  0.8655E+00  0.1755E+02
   5.737  0.8544E+00  0.1756E+02
   5.747  0.8434E+00  0.1757E+02
   5.757  0.8323E+00  0.1757E+02
   5.767  0.8213E+00  0.1758E+02
   5.777  0.8103E+00  0.1759E+02
   5.787  0.7994E+00  0.1760E+02
   5.797  0.7884E+00  0.1761E+02
   5.807  0.7776E+00  0.1761E+02
   5.817  0.7668E+00  0.1762E+02
   5.827  0.7560E+00  0.1763E+02
   5.837  0.7453E+00  0.1764E+02
   5.847  0.7347E+00  0.1764E+02
   5.857  0.7242E+00  0.1765E+02
   5.867  0.7138E+00  0.1766E+02
   5.877  0.7035E+00  0.1767E+02
   5.887  0.6932E+00  0.1767E+02
   5.897  0.6831E+00  0.1768E+02
   5.907  0.6730E+00  0.1769E+02
   5.917  0.6631E+00  0.1769E+02
   5.927  0.6533E+00  0.1770E+02
   5.937  0.6436E+00  0.1771E+02
   5.947  0.6340E+00  0.1771E+02
   5.957  0.6245E+00  0.1772E+02
   5.967  0.6151E+00  0.1772E+02
   5.977  0.6058E+00  0.1773E+02
   5.987  0.5967E+00  0.1774E+02
   5.997  0.5877E+00  0.1774E+02
   6.007  0.5788E+00  0.1775E+02
   6.017  0.5700E+00  0.1775E+02
   6.027  0.5613E+00  0.1776E+02
   6.037  0.5527E+00  0.1776E+02
   6.047  0.5442E+00  0.1777E+02
   6.057  0.5359E+00  0.1778E+02
   6.067  0.5276E+00  0.1778E+02
   6.077  0.5195E+00  0.1779E+02
   6.087  0.5114E+00  0.1779E+02
   6.097  0.5035E+00  0.1780E+02
   6.107  0.4956E+00  0.1780E+02
   6.117  0.4879E+00  0.1781E+02
   6.127  0.4802E+00  0.1781E+02
   6.137  0.4727E+00  0.1782E+02
   6.147  0.4652E+00  0.1782E+02
   6.157  0.4578E+00  0.1782E+02
   6.167  0.4504E+00  0.1783E+02
   6.177  0.4432E+00  0.1783E+02
   6.187  0.4360E+00  0.1784E+02
   6.197  0.4289E+00  0.1784E+02
   6.207  0.4219E+00  0.1785E+02
   6.217  0.4149E+00  0.1785E+02
   6.227  0.4080E+00  0.1785E+02
   6.237  0.4012E+00  0.1786E+02
   6.247  0.3944E+00  0.1786E+02
   6.257  0.3877E+00  0.1787E+02
   6.267  0.3810E+00  0.1787E+02
   6.277  0.3744E+00  0.1787E+02
   6.287  0.3678E+00  0.1788E+02
   6.297  0.3613E+00  0.1788E+02
   6.307  0.3548E+00  0.1789E+02
   6.317  0.3484E+00  0.1789E+02
   6.327  0.3420E+00  0.1789E+02
   6.337  0.3356E+00  0.1790E+02
   6.347  0.3292E+00  0.1790E+02
   6.357  0.3229E+00  0.1790E+02
   6.367  0.3167E+00  0.1791E+02
   6.377  0.3104E+00  0.1791E+02
   6.387  0.3042E+00  0.1791E+02
   6.397  0.2981E+00  0.1791E+02
   6.407  0.2919E+00  0.1792E+02
   6.417  0.2858E+00  0.1792E+02
   6.427  0.2797E+00  0.1792E+02
   6.437  0.2736E+00  0.1793E+02
   6.447  0.2676E+00  0.1793E+02
   6.457  0.2616E+00  0.1793E+02
   6.467  0.2556E+00  0.1793E+02
   6.477  0.2496E+00  0.1794E+02
   6.487  0.2437E+00  0.1794E+02
   6.497  0.2378E+00  0.1794E+02
   6.507  0.2319E+00  0.1794E+02
   6.517  0.2261E+00  0.1795E+02
   6.527  0.2203E+00  0.1795E+02
   6.537  0.2145E+00  0.1795E+02
   6.547  0.2087E+00  0.1795E+02
   6.557  0.2030E+00  0.1795E+02
   6.567  0.1974E+00  0.1796E+02
   6.577  0.1917E+00  0.1796E+02
   6.587  0.1862E+00  0.1796E+02
   6.597  0.1806E+00  0.1796E+02
   6.607  0.1752E+00  0.1796E+02
   6.617  0.1697E+00  0.1796E+02
   6.627  0.1644E+00  0.1797E+02
   6.637  0.1591E+00  0.1797E+02
   6.647  0.1538E+00  0.1797E+02
   6.657  0.1486E+00  0.1797E+02
   6.667  0.1435E+00  0.1797E+02
   6.677  0.1384E+00  0.1797E+02
   6.687  0.1335E+00  0.1798E+02
   6.697  0.1286E+00  0.1798E+02
   6.707  0.1237E+00  0.1798E+02
   6.717  0.1190E+00  0.1798E+02
   6.727  0.1144E+00  0.1798E+02
   6.737  0.1098E+00  0.1798E+02
   6.747  0.1053E+00  0.1798E+02
   6.757  0.1009E+00  0.1798E+02
   6.767  0.9664E-01  0.1798E+02
   6.777  0.9245E-01  0.1799E+02
   6.787  0.8836E-01  0.1799E+02
   6.797  0.8437E-01  0.1799E+02
   6.807  0.8049E-01  0.1799E+02
   6.817  0.7671E-01  0.1799E+02
   6.827  0.7304E-01  0.1799E+02
   6.837  0.6947E-01  0.1799E+02
   6.847  0.6601E-01  0.1799E+02
   6.857  0.6266E-01  0.1799E+02
   6.867  0.5943E-01  0.1799E+02
   6.877  0.5630E-01  0.1799E+02
   6.887  0.5328E-01  0.1799E+02
   6.897  0.5037E-01  0.1799E+02
   6.907  0.4757E-01  0.1799E+02
   6.917  0.4488E-01  0.1799E+02
   6.927  0.4230E-01  0.1799E+02
   6.937  0.3982E-01  0.1799E+02
   6.947  0.3745E-01  0.1800E+02
   6.957  0.3519E-01  0.1800E+02
   6.967  0.3303E-01  0.1800E+02
   6.977  0.3097E-01  0.1800E+02
   6.987  0.2901E-01  0.1800E+02
   6.997  0.2714E-01  0.1800E+02
   7.007  0.2537E-01  0.1800E+02
   7.017  0.2370E-01  0.1800E+02
   7.027  0.2212E-01  0.1800E+02
   7.037  0.2062E-01  0.1800E+02
   7.047  0.1921E-01  0.1800E+02
   7.057  0.1789E-01  0.1800E+02
   7.067  0.1664E-01  0.1800E+02
   7.077  0.1548E-01  0.1800E+02
   7.087  0.1439E-01  0.1800E+02
   7.097  0.1338E-01  0.1800E+02
   7.107  0.1243E-01  0.1800E+02
   7.117  0.1156E-01  0.1800E+02
   7.127  0.1075E-01  0.1800E+02
   7.137  0.1000E-01  0.1800E+02
   7.147  0.9322E-02  0.1800E+02
   7.157  0.8698E-02  0.1800E+02
   7.167  0.8132E-02  0.1800E+02
   7.177  0.7621E-02  0.1800E+02
   7.187  0.7163E-02  0.1800E+02
   7.197  0.6757E-02  0.1800E+02
   7.207  0.6400E-02  0.1800E+02
   7.217  0.6092E-02  0.1800E+02
   7.227  0.5831E-02  0.1800E+02
   7.237  0.5615E-02  0.1800E+02
   7.247  0.5443E-02  0.1800E+02
   7.257  0.5315E-02  0.1800E+02
   7.267  0.5230E-02  0.1800E+02
   7.277  0.5187E-02  0.1800E+02
   7.287  0.5185E-02  0.1800E+02
   7.297  0.5224E-02  0.1800E+02
   7.307  0.5304E-02  0.1800E+02
   7.317  0.5426E-02  0.1800E+02
   7.327  0.5588E-02  0.1800E+02
   7.337  0.5791E-02  0.1800E+02
   7.347  0.6037E-02  0.1800E+02
   7.357  0.6325E-02  0.1800E+02
   7.367  0.6656E-02  0.1800E+02
   7.377  0.7031E-02  0.1800E+02
   7.387  0.7451E-02  0.1800E+02
   7.397  0.7918E-02  0.1800E+02
   7.407  0.8433E-02  0.1800E+02
   7.417  0.8998E-02  0.1800E+02
   7.427  0.9613E-02  0.1800E+02
   7.437  0.1028E-01  0.1800E+02
   7.447  0.1100E-01  0.1800E+02
   7.457  0.1178E-01  0.1800E+02
   7.467  0.1262E-01  0.1800E+02
   7.477  0.1352E-01  0.1800E+02
   7.487  0.1449E-01  0.1800E+02
   7.497  0.1552E-01  0.1800E+02
   7.507  0.1662E-01  0.1800E+02
   7.517  0.1779E-01  0.1800E+02
   7.527  0.1904E-01  0.1800E+02
   7.537  0.2036E-01  0.1800E+02
   7.547  0.2177E-01  0.1800E+02
   7.557  0.2325E-01  0.1800E+02
   7.567  0.2483E-01  0.1800E+02
   7.577  0.2649E-01  0.1800E+02
   7.587  0.2825E-01  0.1800E+02
   7.597  0.3010E-01  0.1800E+02
   7.607  0.3205E-01  0.1800E+02
   7.617  0.3410E-01  0.1801E+02
   7.627  0.3626E-01  0.1801E+02
   7.637  0.3853E-01  0.1801E+02
   7.647  0.4091E-01  0.1801E+02
   7.657  0.4341E-01  0.1801E+02
   7.667  0.4602E-01  0.1801E+02
   7.677  0.4875E-01  0.1801E+02
   7.687  0.5161E-01  0.1801E+02
   7.697  0.5460E-01  0.1801E+02
   7.707  0.5771E-01  0.1801E+02
   7.717  0.6096E-01  0.1801E+02
   7.727  0.6435E-01  0.1801E+02
   7.737  0.6787E-01  0.1801E+02
   7.747  0.7153E-01  0.1801E+02
   7.757  0.7534E-01  0.1801E+02
   7.767  0.7929E-01  0.1801E+02
   7.777  0.8339E-01  0.1801E+02
   7.787  0.8764E-01  0.1802E+02
   7.797  0.9204E-01  0.1802E+02
   7.807  0.9659E-01  0.1802E+02
   7.817  0.1013E+00  0.1802E+02
   7.827  0.1062E+00  0.1802E+02
   7.837  0.1112E+00  0.1802E+02
   7.847  0.1164E+00  0.1802E+02
   7.857  0.1217E+00  0.1802E+02
   7.867  0.1272E+00  0.1802E+02
   7.877  0.1329E+00  0.1803E+02
   7.887  0.1387E+00  0.1803E+02
   7.897  0.1447E+00  0.1803E+02
   7.907  0.1509E+00  0.1803E+02
   7.917  0.1572E+00  0.1803E+02
   7.927  0.1637E+00  0.1803E+02
   7.937  0.1703E+00  0.1803E+02
   7.947  0.1772E+00  0.1804E+02
   7.957  0.1842E+00  0.1804E+02
   7.967  0.1913E+00  0.1804E+02
   7.977  0.1986E+00  0.1804E+02
   7.987  0.2061E+00  0.1804E+02
   7.997  0.2138E+00  0.1805E+02
   8.007  0.2216E+00  0.1805E+02
   8.017  0.2296E+00  0.1805E+02
   8.027  0.2378E+00  0.1805E+02
   8.037  0.2461E+00  0.1806E+02
   8.047  0.2546E+00  0.1806E+02
   8.057  0.2633E+00  0.1806E+02
   8.067  0.2721E+00  0.1806E+02
   8.077  0.2811E+00  0.1807E+02
   8.087  0.2902E+00  0.1807E+02
   8.097  0.2995E+00  0.1807E+02
   8.107  0.3089E+00  0.1808E+02
   8.117  0.3186E+00  0.1808E+02
   8.127  0.3283E+00  0.1808E+02
   8.137  0.3382E+00  0.1809E+02
   8.147  0.3483E+00  0.1809E+02
   8.157  0.3585E+00  0.1809E+02
   8.167  0.3688E+00  0.1810E+02
   8.177  0.3793E+00  0.1810E+02
   8.187  0.3899E+00  0.1810E+02
   8.197  0.4006E+00  0.1811E+02
   8.207  0.4114E+00  0.1811E+02
   8.217  0.4224E+00  0.1812E+02
   8.227  0.4334E+00  0.1812E+02
   8.237  0.4446E+00  0.1812E+02
   8.247  0.4559E+00  0.1813E+02
   8.257  0.4672E+00  0.1813E+02
   8.267  0.4787E+00  0.1814E+02
   8.277  0.4902E+00  0.1814E+02
   8.287  0.5018E+00  0.1815E+02
   8.297  0.5135E+00  0.1815E+02
   8.307  0.5252E+00  0.1816E+02
   8.317  0.5369E+00  0.1816E+02
   8.327  0.5488E+00  0.1817E+02
   8.337  0.5606E+00  0.1818E+02
   8.347  0.5725E+00  0.1818E+02
   8.357  0.5844E+00  0.1819E+02
   8.367  0.5963E+00  0.1819E+02
   8.377  0.6083E+00  0.1820E+02
   8.387  0.6202E+00  0.1821E+02
   8.397  0.6322E+00  0.1821E+02
   8.407  0.6442E+00  0.1822E+02
   8.417  0.6561E+00  0.1822E+02
   8.427  0.6681E+00  0.1823E+02
   8.437  0.6800E+00  0.1824E+02
   8.447  0.6920E+00  0.1824E+02
   8.457  0.7039E+00  0.1825E+02
   8.467  0.7158E+00  0.1826E+02
   8.477  0.7277E+00  0.1827E+02
   8.487  0.7396E+00  0.1827E+02
   8.497  0.7516E+00  0.1828E+02
   8.507  0.7635E+00  0.1829E+02
   8.517  0.7754E+00  0.1830E+02
   8.527  0.7873E+00  0.1830E+02
   8.537  0.7992E+00  0.1831E+02
   8.547  0.8112E+00  0.1832E+02
   8.557  0.8232E+00  0.1833E+02
   8.567  0.8352E+00  0.1834E+02
   8.577  0.8472E+00  0.1835E+02
   8.587  0.8593E+00  0.1835E+02
   8.597  0.8714E+00  0.1836E+02
   8.607  0.8836E+00  0.1837E+02
   8.617  0.8959E+00  0.1838E+02
   8.627  0.9083E+00  0.1839E+02
   8.637  0.9207E+00  0.1840E+02
   8.647  0.9332E+00  0.1841E+02
   8.657  0.9458E+00  0.1842E+02
   8.667  0.9584E+00  0.1843E+02
   8.677  0.9712E+00  0.1844E+02
   8.687  0.9841E+00  0.1845E+02
   8.697  0.9971E+00  0.1846E+02
   8.707  0.1010E+01  0.1847E+02
   8.717  0.1023E+01  0.1848E+02
   8.727  0.1037E+01  0.1849E+02
   8.737  0.1050E+01  0.1850E+02
   8.747  0.1064E+01  0.1851E+02
   8.757  0.1077E+01  0.1852E+02
   8.767  0.1091E+01  0.1853E+02
   8.777  0.1104E+01  0.1854E+02
   8.787  0.1118E+01  0.1855E+02
   8.797  0.1132E+01  0.1856E+02
   8.807  0.1146E+01  0.1858E+02
   8.817  0.1160E+01  0.1859E+02
   8.827  0.1174E+01  0.1860E+02
   8.837  0.1188E+01  0.1861E+02
   8.847  0.1201E+01  0.1862E+02
   8.857  0.1215E+01  0.1863E+02
   8.867  0.1229E+01  0.1865E+02
   8.877  0.1242E+01  0.1866E+02
   8.887  0.1256E+01  0.1867E+02
   8.897  0.1269E+01  0.1868E+02
   8.907  0.1283E+01  0.1870E+02
   8.917  0.1296E+01  0.1871E+02
   8.927  0.1308E+01  0.1872E+02
   8.937  0.1321E+01  0.1874E+02
   8.947  0.1333E+01  0.1875E+02
   8.957  0.1345E+01  0.1876E+02
   8.967  0.1357E+01  0.1878E+02
   8.977  0.1368E+01  0.1879E+02
   8.987  0.1379E+01  0.1880E+02
   8.997  0.1389E+01  0.1882E+02
   9.007  0.1400E+01  0.1883E+02
   9.017  0.1409E+01  0.1885E+02
   9.027  0.1419E+01  0.1886E+02
   9.037  0.1427E+01  0.1888E+02
   9.047  0.1436E+01  0.1889E+02
   9.057  0.1443E+01  0.1890E+02
   9.067  0.1451E+01  0.1892E+02
   9.077  0.1457E+01  0.1893E+02
   9.087  0.1463E+01  0.1895E+02
   9.097  0.1469E+01  0.1896E+02
   9.107  0.1474E+01  0.1898E+02
   9.117  0.1478E+01  0.1899E+02
   9.127  0.1482E+01  0.1901E+02
   9.137  0.1485E+01  0.1902E+02
   9.147  0.1488E+01  0.1904E+02
   9.157  0.1490E+01  0.1905E+02
   9.167  0.1491E+01  0.1907E+02
   9.177  0.1492E+01  0.1908E+02
   9.187  0.1492E+01  0.1910E+02
   9.197  0.1491E+01  0.1911E+02
   9.207  0.1490E+01  0.1913E+02
   9.217  0.1489E+01  0.1914E+02
   9.227  0.1487E+01  0.1916E+02
   9.237  0.1484E+01  0.1917E+02
   9.247  0.1481E+01  0.1919E+02
   9.257  0.1477E+01  0.1920E+02
   9.267  0.1473E+01  0.1921E+02
   9.277  0.1468E+01  0.1923E+02
   9.287  0.1463E+01  0.1924E+02
   9.297  0.1457E+01  0.1926E+02
   9.307  0.1451E+01  0.1927E+02
   9.317  0.1444E+01  0.1929E+02
   9.327  0.1437E+01  0.1930E+02
   9.337  0.1430E+01  0.1932E+02
   9.347  0.1422E+01  0.1933E+02
   9.357  0.1414E+01  0.1934E+02
   9.367  0.1406E+01  0.1936E+02
   9.377  0.1397E+01  0.1937E+02
   9.387  0.1389E+01  0.1939E+02
   9.397  0.1379E+01  0.1940E+02
   9.407  0.1370E+01  0.1941E+02
   9.417  0.1361E+01  0.1943E+02
   9.427  0.1351E+01  0.1944E+02
   9.437  0.1341E+01  0.1945E+02
   9.447  0.1331E+01  0.1947E+02
   9.457  0.1321E+01  0.1948E+02
   9.467  0.1311E+01  0.1949E+02
   9.477  0.1301E+01  0.1951E+02
   9.487  0.1291E+01  0.1952E+02
   9.497  0.1280E+01  0.1953E+02
   9.507  0.1270E+01  0.1955E+02
   9.517  0.1260E+01  0.1956E+02
   9.527  0.1250E+01  0.1957E+02
   9.537  0.1239E+01  0.1958E+02
   9.547  0.1229E+01  0.1960E+02
   9.557  0.1219E+01  0.1961E+02
   9.567  0.1209E+01  0.1962E+02
   9.577  0.1199E+01  0.1963E+02
   9.587  0.1190E+01  0.1964E+02
   9.597  0.1180E+01  0.1966E+02
   9.607  0.1171E+01  0.1967E+02
   9.617  0.1161E+01  0.1968E+02
   9.627  0.1152E+01  0.1969E+02
   9.637  0.1143E+01  0.1970E+02
   9.647  0.1134E+01  0.1971E+02
   9.657  0.1125E+01  0.1972E+02
   9.667  0.1117E+01  0.1974E+02
   9.677  0.1108E+01  0.1975E+02
   9.687  0.1100E+01  0.1976E+02
   9.697  0.1092E+01  0.1977E+02
   9.707  0.1085E+01  0.1978E+02
   9.717  0.1077E+01  0.1979E+02
   9.727  0.1070E+01  0.1980E+02
   9.737  0.1062E+01  0.1981E+02
   9.747  0.1055E+01  0.1982E+02
   9.757  0.1049E+01  0.1983E+02
   9.767  0.1042E+01  0.1984E+02
   9.777  0.1036E+01  0.1985E+02
   9.787  0.1030E+01  0.1986E+02
   9.797  0.1024E+01  0.1987E+02
   9.807  0.1018E+01  0.1988E+02
   9.817  0.1012E+01  0.1989E+02
   9.827  0.1007E+01  0.1990E+02
   9.837  0.1001E+01  0.1991E+02
   9.847  0.9964E+00  0.1992E+02
   9.857  0.9915E+00  0.1993E+02
   9.867  0.9867E+00  0.1994E+02
   9.877  0.9821E+00  0.1995E+02
   9.887  0.9776E+00  0.1996E+02
   9.897  0.9733E+00  0.1997E+02
   9.907  0.9691E+00  0.1998E+02
   9.917  0.9650E+00  0.1999E+02
   9.927  0.9610E+00  0.2000E+02
   9.937  0.9571E+00  0.2001E+02
   9.947  0.9533E+00  0.2002E+02
   9.957  0.9495E+00  0.2003E+02
   9.967  0.9459E+00  0.2004E+02
   9.977  0.9423E+00  0.2005E+02
   9.987  0.9388E+00  0.2006E+02
   9.997  0.9353E+00  0.2007E+02
  10.007  0.9319E+00  0.2008E+02
  10.017  0.9285E+00  0.2009E+02
  10.027  0.9251E+00  0.2010E+02
  10.037  0.9218E+00  0.2011E+02
  10.047  0.9185E+00  0.2011E+02
  10.057  0.9152E+00  0.2012E+02
  10.067  0.9119E+00  0.2013E+02
  10.077  0.9087E+00  0.2014E+02
  10.087  0.9054E+00  0.2015E+02
  10.097  0.9022E+00  0.2016E+02
  10.107  0.8990E+00  0.2017E+02
  10.117  0.8958E+00  0.2018E+02
  10.127  0.8927E+00  0.2019E+02
  10.137  0.8895E+00  0.2020E+02
  10.147  0.8864E+00  0.2020E+02
  10.157  0.8834E+00  0.2021E+02
  10.167  0.8803E+00  0.2022E+02
  10.177  0.8774E+00  0.2023E+02
  10.187  0.8745E+00  0.2024E+02
  10.197  0.8716E+00  0.2025E+02
  10.207  0.8689E+00  0.2026E+02
  10.217  0.8663E+00  0.2027E+02
  10.227  0.8637E+00  0.2027E+02
  10.237  0.8613E+00  0.2028E+02
  10.247  0.8591E+00  0.2029E+02
  10.257  0.8570E+00  0.2030E+02
  10.267  0.8550E+00  0.2031E+02
  10.277  0.8532E+00  0.2032E+02
  10.287  0.8517E+00  0.2033E+02
  10.297  0.8503E+00  0.2033E+02
  10.307  0.8492E+00  0.2034E+02
  10.317  0.8483E+00  0.2035E+02
  10.327  0.8477E+00  0.2036E+02
  10.337  0.8474E+00  0.2037E+02
  10.347  0.8473E+00  0.2038E+02
  10.357  0.8476E+00  0.2039E+02
  10.367  0.8482E+00  0.2039E+02
  10.377  0.8491E+00  0.2040E+02
  10.387  0.8504E+00  0.2041E+02
  10.397  0.8520E+00  0.2042E+02
  10.407  0.8540E+00  0.2043E+02
  10.417  0.8565E+00  0.2044E+02
  10.427  0.8593E+00  0.2045E+02
  10.437  0.8625E+00  0.2045E+02
  10.447  0.8661E+00  0.2046E+02
  10.457  0.8702E+00  0.2047E+02
  10.467  0.8746E+00  0.2048E+02
  10.477  0.8796E+00  0.2049E+02
  10.487  0.8849E+00  0.2050E+02
  10.497  0.8907E+00  0.2051E+02
  10.507  0.8970E+00  0.2052E+02
  10.517  0.9037E+00  0.2052E+02
  10.527  0.9108E+00  0.2053E+02
  10.537  0.9184E+00  0.2054E+02
  10.547  0.9264E+00  0.2055E+02
  10.557  0.9348E+00  0.2056E+02
  10.567  0.9437E+00  0.2057E+02
  10.577  0.9530E+00  0.2058E+02
  10.587  0.9626E+00  0.2059E+02
  10.597  0.9727E+00  0.2060E+02
  10.607  0.9831E+00  0.2061E+02
  10.617  0.9939E+00  0.2062E+02
  10.627  0.1005E+01  0.2063E+02
  10.637  0.1016E+01  0.2064E+02
  10.647  0.1028E+01  0.2065E+02
  10.657  0.1040E+01  0.2066E+02
  10.667  0.1053E+01  0.2067E+02
  10.677  0.1065E+01  0.2068E+02
  10.687  0.1078E+01  0.2069E+02
  10.697  0.1091E+01  0.2070E+02
  10.707  0.1104E+01  0.2071E+02
  10.717  0.1117E+01  0.2073E+02
  10.727  0.1130E+01  0.2074E+02
  10.737  0.1144E+01  0.2075E+02
  10.747  0.1157E+01  0.2076E+02
  10.757  0.1171E+01  0.2077E+02
  10.767  0.1184E+01  0.2078E+02
  10.777  0.1198E+01  0.2080E+02
  10.787  0.1211E+01  0.2081E+02
  10.797  0.1224E+01  0.2082E+02
  10.807  0.1237E+01  0.2083E+02
  10.817  0.1250E+01  0.2084E+02
  10.827  0.1263E+01  0.2086E+02
  10.837  0.1276E+01  0.2087E+02
  10.847  0.1288E+01  0.2088E+02
  10.857  0.1300E+01  0.2090E+02
  10.867  0.1312E+01  0.2091E+02
  10.877  0.1323E+01  0.2092E+02
  10.887  0.1335E+01  0.2094E+02
  10.897  0.1346E+01  0.2095E+02
  10.907  0.1356E+01  0.2096E+02
  10.917  0.1366E+01  0.2098E+02
  10.927  0.1376E+01  0.2099E+02
  10.937  0.1385E+01  0.2100E+02
  10.947  0.1394E+01  0.2102E+02
  10.957  0.1403E+01  0.2103E+02
  10.967  0.1411E+01  0.2105E+02
  10.977  0.1419E+01  0.2106E+02
  10.987  0.1426E+01  0.2107E+02
  10.997  0.1433E+01  0.2109E+02
  11.007  0.1440E+01  0.2110E+02
  11.017  0.1446E+01  0.2112E+02
  11.027  0.1451E+01  0.2113E+02
  11.037  0.1456E+01  0.2115E+02
  11.047  0.1461E+01  0.2116E+02
  11.057  0.1466E+01  0.2118E+02
  11.067  0.1470E+01  0.2119E+02
  11.077  0.1473E+01  0.2121E+02
  11.087  0.1476E+01  0.2122E+02
  11.097  0.1479E+01  0.2123E+02
  11.107  0.1482E+01  0.2125E+02
  11.117  0.1484E+01  0.2126E+02
  11.127  0.1486E+01  0.2128E+02
  11.137  0.1487E+01  0.2129E+02
  11.147  0.1488E+01  0.2131E+02
  11.157  0.1489E+01  0.2132E+02
  11.167  0.1490E+01  0.2134E+02
  11.177  0.1490E+01  0.2135E+02
  11.187  0.1490E+01  0.2137E+02
  11.197  0.1489E+01  0.2138E+02
  11.207  0.1489E+01  0.2140E+02
  11.217  0.1488E+01  0.2141E+02
  11.227  0.1486E+01  0.2143E+02
  11.237  0.1485E+01  0.2144E+02
  11.247  0.1483E+01  0.2146E+02
  11.257  0.1481E+01  0.2147E+02
  11.267  0.1479E+01  0.2149E+02
  11.277  0.1477E+01  0.2150E+02
  11.287  0.1474E+01  0.2152E+02
  11.297  0.1471E+01  0.2153E+02
  11.307  0.1467E+01  0.2155E+02
  11.317  0.1464E+01  0.2156E+02
  11.327  0.1460E+01  0.2158E+02
  11.337  0.1456E+01  0.2159E+02
  11.347  0.1452E+01  0.2160E+02
  11.357  0.1447E+01  0.2162E+02
  11.367  0.1443E+01  0.2163E+02
  11.377  0.1438E+01  0.2165E+02
  11.387  0.1433E+01  0.2166E+02
  11.397  0.1427E+01  0.2168E+02
  11.407  0.1421E+01  0.2169E+02
  11.417  0.1416E+01  0.2170E+02
  11.427  0.1409E+01  0.2172E+02
  11.437  0.1403E+01  0.2173E+02
  11.447  0.1397E+01  0.2175E+02
  11.457  0.1390E+01  0.2176E+02
  11.467  0.1383E+01  0.2177E+02
  11.477  0.1376E+01  0.2179E+02
  11.487  0.1369E+01  0.2180E+02
  11.497  0.1362E+01  0.2182E+02
  11.507  0.1354E+01  0.2183E+02
  11.517  0.1347E+01  0.2184E+02
  11.527  0.1339E+01  0.2186E+02
  11.537  0.1332E+01  0.2187E+02
  11.547  0.1324E+01  0.2188E+02
  11.557  0.1317E+01  0.2190E+02
  11.567  0.1309E+01  0.2191E+02
  11.577  0.1302E+01  0.2192E+02
  11.587  0.1294E+01  0.2193E+02
  11.597  0.1287E+01  0.2195E+02
  11.607  0.1280E+01  0.2196E+02
  11.617  0.1273E+01  0.2197E+02
  11.627  0.1266E+01  0.2199E+02
  11.637  0.1260E+01  0.2200E+02
  11.647  0.1254E+01  0.2201E+02
  11.657  0.1248E+01  0.2202E+02
  11.667  0.1242E+01  0.2204E+02
  11.677  0.1237E+01  0.2205E+02
  11.687  0.1232E+01  0.2206E+02
  11.697  0.1227E+01  0.2207E+02
  11.707  0.1223E+01  0.2209E+02
  11.717  0.1220E+01  0.2210E+02
  11.727  0.1217E+01  0.2211E+02
  11.737  0.1214E+01  0.2212E+02
  11.747  0.1212E+01  0.2213E+02
  11.757  0.1210E+01  0.2215E+02
  11.767  0.1209E+01  0.2216E+02
  11.777  0.1209E+01  0.2217E+02
  11.787  0.1209E+01  0.2218E+02
  11.797  0.1209E+01  0.2219E+02
  11.807  0.1210E+01  0.2221E+02
  11.817  0.1212E+01  0.2222E+02
  11.827  0.1214E+01  0.2223E+02
  11.837  0.1217E+01  0.2224E+02
  11.847  0.1221E+01  0.2225E+02
  11.857  0.1225E+01  0.2227E+02
  11.867  0.1230E+01  0.2228E+02
  11.877  0.1235E+01  0.2229E+02
  11.887  0.1240E+01  0.2230E+02
  11.897  0.1247E+01  0.2232E+02
  11.907  0.1253E+01  0.2233E+02
  11.917  0.1260E+01  0.2234E+02
  11.927  0.1268E+01  0.2235E+02
  11.937  0.1276E+01  0.2237E+02
  11.947  0.1284E+01  0.2238E+02
  11.957  0.1293E+01  0.2239E+02
  11.967  0.1302E+01  0.2241E+02
  11.977  0.1311E+01  0.2242E+02
  11.987  0.1320E+01  0.2243E+02
  11.997  0.1330E+01  0.2245E+02
  12.007  0.1340E+01  0.2246E+02
  12.017  0.1350E+01  0.2247E+02
  12.027  0.1360E+01  0.2249E+02
  12.037  0.1370E+01  0.2250E+02
  12.047  0.1380E+01  0.2251E+02
  12.057  0.1390E+01  0.2253E+02
  12.067  0.1400E+01  0.2254E+02
  12.077  0.1410E+01  0.2256E+02
  12.087  0.1420E+01  0.2257E+02
  12.097  0.1429E+01  0.2258E+02
  12.107  0.1439E+01  0.2260E+02
  12.117  0.1448E+01  0.2261E+02
  12.127  0.1456E+01  0.2263E+02
  12.137  0.1465E+01  0.2264E+02
  12.147  0.1473E+01  0.2266E+02
  12.157  0.1480E+01  0.2267E+02
  12.167  0.1488E+01  0.2269E+02
  12.177  0.1494E+01  0.2270E+02
  12.187  0.1501E+01  0.2272E+02
  12.197  0.1506E+01  0.2273E+02
  12.207  0.1512E+01  0.2275E+02
  12.217  0.1516E+01  0.2276E+02
  12.227  0.1521E+01  0.2278E+02
  12.237  0.1524E+01  0.2279E+02
  12.247  0.1527E+01  0.2281E+02
  12.257  0.1530E+01  0.2282E+02
  12.267  0.1532E+01  0.2284E+02
  12.277  0.1533E+01  0.2285E+02
  12.287  0.1534E+01  0.2287E+02
  12.297  0.1534E+01  0.2288E+02
  12.307  0.1534E+01  0.2290E+02
  12.317  0.1533E+01  0.2291E+02
  12.327  0.1531E+01  0.2293E+02
  12.337  0.1529E+01  0.2295E+02
  12.347  0.1527E+01  0.2296E+02
  12.357  0.1524E+01  0.2298E+02
  12.367  0.1520E+01  0.2299E+02
  12.377  0.1517E+01  0.2301E+02
  12.387  0.1512E+01  0.2302E+02
  12.397  0.1507E+01  0.2304E+02
  12.407  0.1502E+01  0.2305E+02
  12.417  0.1497E+01  0.2307E+02
  12.427  0.1491E+01  0.2308E+02
  12.437  0.1485E+01  0.2310E+02
  12.447  0.1478E+01  0.2311E+02
  12.457  0.1471E+01  0.2313E+02
  12.467  0.1464E+01  0.2314E+02
  12.477  0.1457E+01  0.2316E+02
  12.487  0.1450E+01  0.2317E+02
  12.497  0.1442E+01  0.2318E+02
  12.507  0.1434E+01  0.2320E+02
  12.517  0.1426E+01  0.2321E+02
  12.527  0.1418E+01  0.2323E+02
  12.537  0.1410E+01  0.2324E+02
  12.547  0.1402E+01  0.2325E+02
  12.557  0.1394E+01  0.2327E+02
  12.567  0.1385E+01  0.2328E+02
  12.577  0.1377E+01  0.2330E+02
  12.587  0.1369E+01  0.2331E+02
  12.597  0.1360E+01  0.2332E+02
  12.607  0.1352E+01  0.2334E+02
  12.617  0.1344E+01  0.2335E+02
  12.627  0.1336E+01  0.2336E+02
  12.637  0.1328E+01  0.2338E+02
  12.647  0.1320E+01  0.2339E+02
  12.657  0.1312E+01  0.2340E+02
  12.667  0.1304E+01  0.2342E+02
  12.677  0.1296E+01  0.2343E+02
  12.687  0.1288E+01  0.2344E+02
  12.697  0.1281E+01  0.2346E+02
  12.707  0.1273E+01  0.2347E+02
  12.717  0.1266E+01  0.2348E+02
  12.727  0.1258E+01  0.2349E+02
  12.737  0.1251E+01  0.2351E+02
  12.747  0.1244E+01  0.2352E+02
  12.757  0.1237E+01  0.2353E+02
  12.767  0.1230E+01  0.2354E+02
  12.777  0.1224E+01  0.2356E+02
  12.787  0.1217E+01  0.2357E+02
  12.797  0.1211E+01  0.2358E+02
  12.807  0.1204E+01  0.2359E+02
  12.817  0.1198E+01  0.2360E+02
  12.827  0.1192E+01  0.2362E+02
  12.837  0.1186E+01  0.2363E+02
  12.847  0.1179E+01  0.2364E+02
  12.857  0.1173E+01  0.2365E+02
  12.867  0.1168E+01  0.2366E+02
  12.877  0.1162E+01  0.2367E+02
  12.887  0.1156E+01  0.2369E+02
  12.897  0.1150E+01  0.2370E+02
  12.907  0.1144E+01  0.2371E+02
  12.917  0.1139E+01  0.2372E+02
  12.927  0.1133E+01  0.2373E+02
  12.937  0.1128E+01  0.2374E+02
  12.947  0.1122E+01  0.2375E+02
  12.957  0.1116E+01  0.2376E+02
  12.967  0.1111E+01  0.2378E+02
  12.977  0.1105E+01  0.2379E+02
  12.987  0.1100E+01  0.2380E+02
  12.997  0.1094E+01  0.2381E+02
  13.007  0.1088E+01  0.2382E+02
  13.017  0.1083E+01  0.2383E+02
  13.027  0.1077E+01  0.2384E+02
  13.037  0.1071E+01  0.2385E+02
  13.047  0.1066E+01  0.2386E+02
  13.057  0.1060E+01  0.2387E+02
  13.067  0.1054E+01  0.2388E+02
  13.077  0.1048E+01  0.2389E+02
  13.087  0.1042E+01  0.2390E+02
  13.097  0.1036E+01  0.2392E+02
  13.107  0.1031E+01  0.2393E+02
  13.117  0.1025E+01  0.2394E+02
  13.127  0.1019E+01  0.2395E+02
  13.137  0.1013E+01  0.2396E+02
  13.147  0.1007E+01  0.2397E+02
  13.157  0.1001E+01  0.2398E+02
  13.167  0.9948E+00  0.2399E+02
  13.177  0.9889E+00  0.2400E+02
  13.187  0.9830E+00  0.2401E+02
  13.197  0.9772E+00  0.2402E+02
  13.207  0.9714E+00  0.2403E+02
  13.217  0.9656E+00  0.2404E+02
  13.227  0.9600E+00  0.2404E+02
  13.237  0.9544E+00  0.2405E+02
  13.247  0.9489E+00  0.2406E+02
  13.257  0.9435E+00  0.2407E+02
  13.267  0.9383E+00  0.2408E+02
  13.277  0.9331E+00  0.2409E+02
  13.287  0.9282E+00  0.2410E+02
  13.297  0.9233E+00  0.2411E+02
  13.307  0.9187E+00  0.2412E+02
  13.317  0.9142E+00  0.2413E+02
  13.327  0.9098E+00  0.2414E+02
  13.337  0.9057E+00  0.2415E+02
  13.347  0.9018E+00  0.2416E+02
  13.357  0.8981E+00  0.2416E+02
  13.367  0.8945E+00  0.2417E+02
  13.377  0.8912E+00  0.2418E+02
  13.387  0.8881E+00  0.2419E+02
  13.397  0.8852E+00  0.2420E+02
  13.407  0.8825E+00  0.2421E+02
  13.417  0.8801E+00  0.2422E+02
  13.427  0.8778E+00  0.2423E+02
  13.437  0.8758E+00  0.2424E+02
  13.447  0.8739E+00  0.2424E+02
  13.457  0.8722E+00  0.2425E+02
  13.467  0.8707E+00  0.2426E+02
  13.477  0.8694E+00  0.2427E+02
  13.487  0.8682E+00  0.2428E+02
  13.497  0.8672E+00  0.2429E+02
  13.507  0.8663E+00  0.2430E+02
  13.517  0.8656E+00  0.2431E+02
  13.527  0.8649E+00  0.2431E+02
  13.537  0.8644E+00  0.2432E+02
  13.547  0.8639E+00  0.2433E+02
  13.557  0.8635E+00  0.2434E+02
  13.567  0.8632E+00  0.2435E+02
  13.577  0.8629E+00  0.2436E+02
  13.587  0.8626E+00  0.2437E+02
  13.597  0.8624E+00  0.2437E+02
  13.607  0.8621E+00  0.2438E+02
  13.617  0.8619E+00  0.2439E+02
  13.627  0.8616E+00  0.2440E+02
  13.637  0.8613E+00  0.2441E+02
  13.647  0.8610E+00  0.2442E+02
  13.657  0.8607E+00  0.2443E+02
  13.667  0.8603E+00  0.2443E+02
  13.677  0.8598E+00  0.2444E+02
  13.687  0.8594E+00  0.2445E+02
  13.697  0.8589E+00  0.2446E+02
  13.707  0.8583E+00  0.2447E+02
  13.717  0.8577E+00  0.2448E+02
  13.727  0.8571E+00  0.2449E+02
  13.737  0.8565E+00  0.2449E+02
  13.747  0.8558E+00  0.2450E+02
  13.757  0.8552E+00  0.2451E+02
  13.767  0.8545E+00  0.2452E+02
  13.777  0.8539E+00  0.2453E+02
  13.787  0.8533E+00  0.2454E+02
  13.797  0.8528E+00  0.2455E+02
  13.807  0.8523E+00  0.2455E+02
  13.817  0.8520E+00  0.2456E+02
  13.827  0.8517E+00  0.2457E+02
  13.837  0.8516E+00  0.2458E+02
  13.847  0.8516E+00  0.2459E+02
  13.857  0.8518E+00  0.2460E+02
  13.867  0.8521E+00  0.2461E+02
  13.877  0.8526E+00  0.2461E+02
  13.887  0.8534E+00  0.2462E+02
  13.897  0.8544E+00  0.2463E+02
  13.907  0.8556E+00  0.2464E+02
  13.917  0.8571E+00  0.2465E+02
  13.927  0.8588E+00  0.2466E+02
  13.937  0.8609E+00  0.2467E+02
  13.947  0.8632E+00  0.2467E+02
  13.957  0.8658E+00  0.2468E+02
  13.967  0.8687E+00  0.2469E+02
  13.977  0.8719E+00  0.2470E+02
  13.987  0.8754E+00  0.2471E+02
  13.997  0.8792E+00  0.2472E+02
  14.007  0.8833E+00  0.2473E+02
  14.017  0.8877E+00  0.2474E+02
  14.027  0.8924E+00  0.2474E+02
  14.037  0.8973E+00  0.2475E+02
  14.047  0.9025E+00  0.2476E+02
  14.057  0.9080E+00  0.2477E+02
  14.067  0.9136E+00  0.2478E+02
  14.077  0.9195E+00  0.2479E+02
  14.087  0.9255E+00  0.2480E+02
  14.097  0.9317E+00  0.2481E+02
  14.107  0.9380E+00  0.2482E+02
  14.117  0.9444E+00  0.2483E+02
  14.127  0.9509E+00  0.2484E+02
  14.137  0.9574E+00  0.2485E+02
  14.147  0.9640E+00  0.2486E+02
  14.157  0.9705E+00  0.2487E+02
  14.167  0.9770E+00  0.2488E+02
  14.177  0.9834E+00  0.2489E+02
  14.187  0.9896E+00  0.2490E+02
  14.197  0.9958E+00  0.2490E+02
  14.207  0.1002E+01  0.2491E+02
  14.217  0.1008E+01  0.2493E+02
  14.227  0.1013E+01  0.2494E+02
  14.237  0.1018E+01  0.2495E+02
  14.247  0.1023E+01  0.2496E+02
  14.257  0.1028E+01  0.2497E+02
  14.267  0.1032E+01  0.2498E+02
  14.277  0.1036E+01  0.2499E+02
  14.287  0.1040E+01  0.2500E+02
  14.297  0.1043E+01  0.2501E+02
  14.307  0.1046E+01  0.2502E+02
  14.317  0.1048E+01  0.2503E+02
  14.327  0.1050E+01  0.2504E+02
  14.337  0.1051E+01  0.2505E+02
  14.347  0.1052E+01  0.2506E+02
  14.357  0.1052E+01  0.2507E+02
  14.367  0.1052E+01  0.2508E+02
  14.377  0.1052E+01  0.2509E+02
  14.387  0.1050E+01  0.2510E+02
  14.397  0.1049E+01  0.2511E+02
  14.407  0.1047E+01  0.2512E+02
  14.417  0.1044E+01  0.2513E+02
  14.427  0.1041E+01  0.2514E+02
  14.437  0.1037E+01  0.2515E+02
  14.447  0.1033E+01  0.2516E+02
  14.457  0.1028E+01  0.2517E+02
  14.467  0.1023E+01  0.2518E+02
  14.477  0.1018E+01  0.2520E+02
  14.487  0.1012E+01  0.2521E+02
  14.497  0.1005E+01  0.2522E+02
  14.507  0.9983E+00  0.2523E+02
  14.517  0.9910E+00  0.2524E+02
  14.527  0.9833E+00  0.2525E+02
  14.537  0.9753E+00  0.2525E+02
  14.547  0.9669E+00  0.2526E+02
  14.557  0.9582E+00  0.2527E+02
  14.567  0.9491E+00  0.2528E+02
  14.577  0.9398E+00  0.2529E+02
  14.587  0.9302E+00  0.2530E+02
  14.597  0.9203E+00  0.2531E+02
  14.607  0.9102E+00  0.2532E+02
  14.617  0.8998E+00  0.2533E+02
  14.627  0.8893E+00  0.2534E+02
  14.637  0.8786E+00  0.2535E+02
  14.647  0.8677E+00  0.2536E+02
  14.657  0.8567E+00  0.2536E+02
  14.667  0.8455E+00  0.2537E+02
  14.677  0.8343E+00  0.2538E+02
  14.687  0.8229E+00  0.2539E+02
  14.697  0.8115E+00  0.2540E+02
  14.707  0.8001E+00  0.2541E+02
  14.717  0.7886E+00  0.2541E+02
  14.727  0.7771E+00  0.2542E+02
  14.737  0.7655E+00  0.2543E+02
  14.747  0.7541E+00  0.2544E+02
  14.757  0.7426E+00  0.2544E+02
  14.767  0.7312E+00  0.2545E+02
  14.777  0.7199E+00  0.2546E+02
  14.787  0.7086E+00  0.2547E+02
  14.797  0.6974E+00  0.2547E+02
  14.807  0.6864E+00  0.2548E+02
  14.817  0.6755E+00  0.2549E+02
  14.827  0.6647E+00  0.2549E+02
  14.837  0.6540E+00  0.2550E+02
  14.847  0.6435E+00  0.2551E+02
  14.857  0.6332E+00  0.2551E+02
  14.867  0.6231E+00  0.2552E+02
  14.877  0.6131E+00  0.2552E+02
  14.887  0.6034E+00  0.2553E+02
  14.897  0.5938E+00  0.2554E+02
  14.907  0.5845E+00  0.2554E+02
  14.917  0.5754E+00  0.2555E+02
  14.927  0.5665E+00  0.2555E+02
  14.937  0.5578E+00  0.2556E+02
  14.947  0.5494E+00  0.2556E+02
  14.957  0.5412E+00  0.2557E+02
  14.967  0.5333E+00  0.2558E+02
  14.977  0.5256E+00  0.2558E+02
  14.987  0.5181E+00  0.2559E+02
  14.997  0.5109E+00  0.2559E+02
  15.007  0.5039E+00  0.2560E+02
  15.017  0.4972E+00  0.2560E+02
  15.027  0.4907E+00  0.2561E+02
  15.037  0.4844E+00  0.2561E+02
  15.047  0.4783E+00  0.2562E+02
  15.057  0.4725E+00  0.2562E+02
  15.067  0.4668E+00  0.2562E+02
  15.077  0.4614E+00  0.2563E+02
  15.087  0.4561E+00  0.2563E+02
  15.097  0.4510E+00  0.2564E+02
  15.107  0.4461E+00  0.2564E+02
  15.117  0.4414E+00  0.2565E+02
  15.127  0.4368E+00  0.2565E+02
  15.137  0.4324E+00  0.2566E+02
  15.147  0.4280E+00  0.2566E+02
  15.157  0.4238E+00  0.2566E+02
  15.167  0.4197E+00  0.2567E+02
  15.177  0.4157E+00  0.2567E+02
  15.187  0.4118E+00  0.2568E+02
  15.197  0.4080E+00  0.2568E+02
  15.207  0.4042E+00  0.2569E+02
  15.217  0.4004E+00  0.2569E+02
  15.227  0.3967E+00  0.2569E+02
  15.237  0.3930E+00  0.2570E+02
  15.247  0.3894E+00  0.2570E+02
  15.257  0.3857E+00  0.2570E+02
  15.267  0.3821E+00  0.2571E+02
  15.277  0.3784E+00  0.2571E+02
  15.287  0.3748E+00  0.2572E+02
  15.297  0.3711E+00  0.2572E+02
  15.307  0.3674E+00  0.2572E+02
  15.317  0.3636E+00  0.2573E+02
  15.327  0.3599E+00  0.2573E+02
  15.337  0.3561E+00  0.2573E+02
  15.347  0.3522E+00  0.2574E+02
  15.357  0.3483E+00  0.2574E+02
  15.367  0.3444E+00  0.2574E+02
  15.377  0.3405E+00  0.2575E+02
  15.387  0.3365E+00  0.2575E+02
  15.397  0.3325E+00  0.2576E+02
  15.407  0.3284E+00  0.2576E+02
  15.417  0.3244E+00  0.2576E+02
  15.427  0.3203E+00  0.2576E+02
  15.437  0.3162E+00  0.2577E+02
  15.447  0.3121E+00  0.2577E+02
  15.457  0.3080E+00  0.2577E+02
  15.467  0.3039E+00  0.2578E+02
  15.477  0.2998E+00  0.2578E+02
  15.487  0.2958E+00  0.2578E+02
  15.497  0.2918E+00  0.2579E+02
  15.507  0.2878E+00  0.2579E+02
  15.517  0.2838E+00  0.2579E+02
  15.527  0.2799E+00  0.2579E+02
  15.537  0.2761E+00  0.2580E+02
  15.547  0.2723E+00  0.2580E+02
  15.557  0.2686E+00  0.2580E+02
  15.567  0.2650E+00  0.2581E+02
  15.577  0.2615E+00  0.2581E+02
  15.587  0.2581E+00  0.2581E+02
  15.597  0.2547E+00  0.2581E+02
  15.607  0.2515E+00  0.2582E+02
  15.617  0.2483E+00  0.2582E+02
  15.627  0.2453E+00  0.2582E+02
  15.637  0.2424E+00  0.2582E+02
  15.647  0.2395E+00  0.2583E+02
  15.657  0.2368E+00  0.2583E+02
  15.667  0.2343E+00  0.2583E+02
  15.677  0.2318E+00  0.2583E+02
  15.687  0.2294E+00  0.2583E+02
  15.697  0.2272E+00  0.2584E+02
  15.707  0.2250E+00  0.2584E+02
  15.717  0.2230E+00  0.2584E+02
  15.727  0.2210E+00  0.2584E+02
  15.737  0.2192E+00  0.2585E+02
  15.747  0.2174E+00  0.2585E+02
  15.757  0.2158E+00  0.2585E+02
  15.767  0.2142E+00  0.2585E+02
  15.777  0.2127E+00  0.2585E+02
  15.787  0.2113E+00  0.2586E+02
  15.797  0.2099E+00  0.2586E+02
  15.807  0.2086E+00  0.2586E+02
  15.817  0.2073E+00  0.2586E+02
  15.827  0.2061E+00  0.2586E+02
  15.837  0.2049E+00  0.2587E+02
  15.847  0.2037E+00  0.2587E+02
  15.857  0.2026E+00  0.2587E+02
  15.867  0.2014E+00  0.2587E+02
  15.877  0.2003E+00  0.2587E+02
  15.887  0.1992E+00  0.2588E+02
  15.897  0.1980E+00  0.2588E+02
  15.907  0.1969E+00  0.2588E+02
  15.917  0.1957E+00  0.2588E+02
  15.927  0.1946E+00  0.2588E+02
  15.937  0.1933E+00  0.2589E+02
  15.947  0.1921E+00  0.2589E+02
  15.957  0.1908E+00  0.2589E+02
  15.967  0.1895E+00  0.2589E+02
  15.977  0.1882E+00  0.2589E+02
  15.987  0.1868E+00  0.2590E+02
  15.997  0.1853E+00  0.2590E+02
  16.007  0.1838E+00  0.2590E+02
  16.017  0.1823E+00  0.2590E+02
  16.027  0.1807E+00  0.2590E+02
  16.037  0.1790E+00  0.2591E+02
  16.047  0.1773E+00  0.2591E+02
  16.057  0.1756E+00  0.2591E+02
  16.067  0.1738E+00  0.2591E+02
  16.077  0.1720E+00  0.2591E+02
  16.087  0.1701E+00  0.2591E+02
  16.097  0.1682E+00  0.2592E+02
  16.107  0.1662E+00  0.2592E+02
  16.117  0.1642E+00  0.2592E+02
  16.127  0.1622E+00  0.2592E+02
  16.137  0.1601E+00  0.2592E+02
  16.147  0.1580E+00  0.2592E+02
  16.157  0.1559E+00  0.2593E+02
  16.167  0.1538E+00  0.2593E+02
  16.177  0.1516E+00  0.2593E+02
  16.187  0.1494E+00  0.2593E+02
  16.197  0.1472E+00  0.2593E+02
  16.207  0.1451E+00  0.2593E+02
  16.217  0.1429E+00  0.2593E+02
  16.227  0.1407E+00  0.2594E+02
  16.237  0.1385E+00  0.2594E+02
  16.247  0.1363E+00  0.2594E+02
  16.257  0.1341E+00  0.2594E+02
  16.267  0.1320E+00  0.2594E+02
  16.277  0.1298E+00  0.2594E+02
  16.287  0.1277E+00  0.2594E+02
  16.297  0.1256E+00  0.2594E+02
  16.307  0.1235E+00  0.2595E+02
  16.317  0.1215E+00  0.2595E+02
  16.327  0.1194E+00  0.2595E+02
  16.337  0.1174E+00  0.2595E+02
  16.347  0.1155E+00  0.2595E+02
  16.357  0.1136E+00  0.2595E+02
  16.367  0.1117E+00  0.2595E+02
  16.377  0.1098E+00  0.2595E+02
  16.387  0.1080E+00  0.2596E+02
  16.397  0.1062E+00  0.2596E+02
  16.407  0.1045E+00  0.2596E+02
  16.417  0.1028E+00  0.2596E+02
  16.427  0.1011E+00  0.2596E+02
  16.437  0.9951E-01  0.2596E+02
  16.447  0.9793E-01  0.2596E+02
  16.457  0.9638E-01  0.2596E+02
  16.467  0.9487E-01  0.2596E+02
  16.477  0.9340E-01  0.2596E+02
  16.487  0.9196E-01  0.2597E+02
  16.497  0.9055E-01  0.2597E+02
  16.507  0.8917E-01  0.2597E+02
  16.517  0.8783E-01  0.2597E+02
  16.527  0.8651E-01  0.2597E+02
  16.537  0.8521E-01  0.2597E+02
  16.547  0.8394E-01  0.2597E+02
  16.557  0.8269E-01  0.2597E+02
  16.567  0.8145E-01  0.2597E+02
  16.577  0.8023E-01  0.2597E+02
  16.587  0.7903E-01  0.2597E+02
  16.597  0.7784E-01  0.2597E+02
  16.607  0.7665E-01  0.2598E+02
  16.617  0.7548E-01  0.2598E+02
  16.627  0.7431E-01  0.2598E+02
  16.637  0.7314E-01  0.2598E+02
  16.647  0.7197E-01  0.2598E+02
  16.657  0.7080E-01  0.2598E+02
  16.667  0.6962E-01  0.2598E+02
  16.677  0.6844E-01  0.2598E+02
  16.687  0.6725E-01  0.2598E+02
  16.697  0.6606E-01  0.2598E+02
  16.707  0.6486E-01  0.2598E+02
  16.717  0.6364E-01  0.2598E+02
  16.727  0.6242E-01  0.2598E+02
  16.737  0.6118E-01  0.2598E+02
  16.747  0.5994E-01  0.2598E+02
  16.757  0.5868E-01  0.2599E+02
  16.767  0.5740E-01  0.2599E+02
  16.777  0.5612E-01  0.2599E+02
  16.787  0.5483E-01  0.2599E+02
  16.797  0.5352E-01  0.2599E+02
  16.807  0.5221E-01  0.2599E+02
  16.817  0.5088E-01  0.2599E+02
  16.827  0.4955E-01  0.2599E+02
  16.837  0.4821E-01  0.2599E+02
  16.847  0.4687E-01  0.2599E+02
  16.857  0.4552E-01  0.2599E+02
  16.867  0.4418E-01  0.2599E+02
  16.877  0.4283E-01  0.2599E+02
  16.887  0.4148E-01  0.2599E+02
  16.897  0.4014E-01  0.2599E+02
  16.907  0.3880E-01  0.2599E+02
  16.917  0.3747E-01  0.2599E+02
  16.927  0.3615E-01  0.2599E+02
  16.937  0.3484E-01  0.2599E+02
  16.947  0.3354E-01  0.2599E+02
  16.957  0.3226E-01  0.2599E+02
  16.967  0.3100E-01  0.2599E+02
  16.977  0.2975E-01  0.2599E+02
  16.987  0.2852E-01  0.2600E+02
  16.997  0.2732E-01  0.2600E+02
  17.007  0.2614E-01  0.2600E+02
  17.017  0.2498E-01  0.2600E+02
  17.027  0.2385E-01  0.2600E+02
  17.037  0.2275E-01  0.2600E+02
  17.047  0.2167E-01  0.2600E+02
  17.057  0.2063E-01  0.2600E+02
  17.067  0.1961E-01  0.2600E+02
  17.077  0.1862E-01  0.2600E+02
  17.087  0.1767E-01  0.2600E+02
  17.097  0.1674E-01  0.2600E+02
  17.107  0.1585E-01  0.2600E+02
  17.117  0.1499E-01  0.2600E+02
  17.127  0.1416E-01  0.2600E+02
  17.137  0.1337E-01  0.2600E+02
  17.147  0.1260E-01  0.2600E+02
  17.157  0.1187E-01  0.2600E+02
  17.167  0.1117E-01  0.2600E+02
  17.177  0.1050E-01  0.2600E+02
  17.187  0.9857E-02  0.2600E+02
  17.197  0.9246E-02  0.2600E+02
  17.207  0.8664E-02  0.2600E+02
  17.217  0.8111E-02  0.2600E+02
  17.227  0.7585E-02  0.2600E+02
  17.237  0.7087E-02  0.2600E+02
  17.247  0.6615E-02  0.2600E+02
  17.257  0.6168E-02  0.2600E+02
  17.267  0.5746E-02  0.2600E+02
  17.277  0.5347E-02  0.2600E+02
  17.287  0.4971E-02  0.2600E+02
  17.297  0.4617E-02  0.2600E+02
  17.307  0.4285E-02  0.2600E+02
  17.317  0.3972E-02  0.2600E+02
  17.327  0.3678E-02  0.2600E+02
  17.337  0.3403E-02  0.2600E+02
  17.347  0.3146E-02  0.2600E+02
  17.357  0.2905E-02  0.2600E+02
  17.367  0.2679E-02  0.2600E+02
  17.377  0.2469E-02  0.2600E+02
  17.387  0.2273E-02  0.2600E+02
  17.397  0.2091E-02  0.2600E+02
  17.407  0.1921E-02  0.2600E+02
  17.417  0.1764E-02  0.2600E+02
  17.427  0.1617E-02  0.2600E+02
  17.437  0.1481E-02  0.2600E+02
  17.447  0.1356E-02  0.2600E+02
  17.457  0.1239E-02  0.2600E+02
  17.467  0.1132E-02  0.2600E+02
  17.477  0.1032E-02  0.2600E+02
  17.487  0.9407E-03  0.2600E+02
  17.497  0.8563E-03  0.2600E+02
  17.507  0.7786E-03  0.2600E+02
  17.517  0.7072E-03  0.2600E+02
  17.527  0.6416E-03  0.2600E+02
  17.537  0.5815E-03  0.2600E+02
  17.547  0.5264E-03  0.2600E+02
  17.557  0.4759E-03  0.2600E+02
  17.567  0.4298E-03  0.2600E+02
  17.577  0.3877E-03  0.2600E+02
  17.587  0.3494E-03  0.2600E+02
  17.597  0.3144E-03  0.2600E+02
  17.607  0.2826E-03  0.2600E+02
  17.617  0.2537E-03  0.2600E+02
  17.627  0.2275E-03  0.2600E+02
  17.637  0.2037E-03  0.2600E+02
  17.647  0.1822E-03  0.2600E+02
  17.657  0.1627E-03  0.2600E+02
  17.667  0.1451E-03  0.2600E+02
  17.677  0.1293E-03  0.2600E+02
  17.687  0.1150E-03  0.2600E+02
  17.697  0.1022E-03  0.2600E+02
  17.707  0.9071E-04  0.2600E+02
  17.717  0.8038E-04  0.2600E+02
  17.727  0.7113E-04  0.2600E+02
  17.737  0.6285E-04  0.2600E+02
  17.747  0.5547E-04  0.2600E+02
  17.757  0.4888E-04  0.2600E+02
  17.767  0.4301E-04  0.2600E+02
  17.777  0.3779E-04  0.2600E+02
  17.787  0.3316E-04  0.2600E+02
  17.797  0.2906E-04  0.2600E+02
  17.807  0.2542E-04  0.2600E+02
  17.817  0.2221E-04  0.2600E+02
  17.827  0.1937E-04  0.2600E+02
  17.837  0.1687E-04  0.2600E+02
  17.847  0.1468E-04  0.2600E+02
  17.857  0.1275E-04  0.2600E+02
  17.867  0.1105E-04  0.2600E+02
  17.877  0.9568E-05  0.2600E+02
  17.887  0.8271E-05  0.2600E+02
  17.897  0.7139E-05  0.2600E+02
  17.907  0.6153E-05  0.2600E+02
  17.917  0.5294E-05  0.2600E+02
  17.927  0.4548E-05  0.2600E+02
  17.937  0.3902E-05  0.2600E+02
  17.947  0.3341E-05  0.2600E+02
  17.957  0.2857E-05  0.2600E+02
  17.967  0.2439E-05  0.2600E+02
  17.977  0.2079E-05  0.2600E+02
  17.987  0.1769E-05  0.2600E+02
  17.997  0.1503E-05  0.2600E+02
  18.007  0.1275E-05  0.2600E+02
  18.017  0.1080E-05  0.2600E+02
  18.027  0.9133E-06  0.2600E+02
  18.037  0.7710E-06  0.2600E+02
  18.047  0.6498E-06  0.2600E+02
  18.057  0.5468E-06  0.2600E+02
  18.067  0.4593E-06  0.2600E+02
  18.077  0.3852E-06  0.2600E+02
  18.087  0.3226E-06  0.2600E+02
