#  E (eV)   dos(E)     Int dos(E) EFermi =    4.785 eV
  -9.662  0.5864E-06  0.5864E-08
  -9.652  0.9372E-06  0.1524E-07
  -9.642  0.1483E-05  0.3006E-07
  -9.632  0.2322E-05  0.5328E-07
  -9.622  0.3600E-05  0.8928E-07
  -9.612  0.5526E-05  0.1445E-06
  -9.602  0.8398E-05  0.2285E-06
  -9.592  0.1263E-04  0.3549E-06
  -9.582  0.1882E-04  0.5431E-06
  -9.572  0.2776E-04  0.8207E-06
  -9.562  0.4054E-04  0.1226E-05
  -9.552  0.5863E-04  0.1812E-05
  -9.542  0.8397E-04  0.2652E-05
  -9.532  0.1191E-03  0.3843E-05
  -9.522  0.1673E-03  0.5515E-05
  -9.512  0.2326E-03  0.7842E-05
  -9.502  0.3205E-03  0.1105E-04
  -9.492  0.4374E-03  0.1542E-04
  -9.482  0.5912E-03  0.2133E-04
  -9.472  0.7917E-03  0.2925E-04
  -9.462  0.1050E-02  0.3975E-04
  -9.452  0.1380E-02  0.5356E-04
  -9.442  0.1798E-02  0.7154E-04
  -9.432  0.2320E-02  0.9474E-04
  -9.422  0.2967E-02  0.1244E-03
  -9.412  0.3761E-02  0.1620E-03
  -9.402  0.4724E-02  0.2093E-03
  -9.392  0.5883E-02  0.2681E-03
  -9.382  0.7264E-02  0.3407E-03
  -9.372  0.8891E-02  0.4296E-03
  -9.362  0.1079E-01  0.5376E-03
  -9.352  0.1299E-01  0.6675E-03
  -9.342  0.1551E-01  0.8226E-03
  -9.332  0.1837E-01  0.1006E-02
  -9.322  0.2159E-01  0.1222E-02
  -9.312  0.2518E-01  0.1474E-02
  -9.302  0.2915E-01  0.1766E-02
  -9.292  0.3349E-01  0.2100E-02
  -9.282  0.3820E-01  0.2482E-02
  -9.272  0.4327E-01  0.2915E-02
  -9.262  0.4868E-01  0.3402E-02
  -9.252  0.5442E-01  0.3946E-02
  -9.242  0.6044E-01  0.4550E-02
  -9.232  0.6672E-01  0.5218E-02
  -9.222  0.7322E-01  0.5950E-02
  -9.212  0.7991E-01  0.6749E-02
  -9.202  0.8674E-01  0.7616E-02
  -9.192  0.9366E-01  0.8553E-02
  -9.182  0.1007E+00  0.9559E-02
  -9.172  0.1077E+00  0.1064E-01
  -9.162  0.1147E+00  0.1178E-01
  -9.152  0.1216E+00  0.1300E-01
  -9.142  0.1285E+00  0.1428E-01
  -9.132  0.1353E+00  0.1564E-01
  -9.122  0.1419E+00  0.1706E-01
  -9.112  0.1484E+00  0.1854E-01
  -9.102  0.1548E+00  0.2009E-01
  -9.092  0.1610E+00  0.2170E-01
  -9.082  0.1671E+00  0.2337E-01
  -9.072  0.1730E+00  0.2510E-01
  -9.062  0.1788E+00  0.2689E-01
  -9.052  0.1844E+00  0.2873E-01
  -9.042  0.1899E+00  0.3063E-01
  -9.032  0.1953E+00  0.3258E-01
  -9.022  0.2006E+00  0.3459E-01
  -9.012  0.2057E+00  0.3665E-01
  -9.002  0.2108E+00  0.3875E-01
  -8.992  0.2157E+00  0.4091E-01
  -8.982  0.2205E+00  0.4312E-01
  -8.972  0.2253E+00  0.4537E-01
  -8.962  0.2299E+00  0.4767E-01
  -8.952  0.2345E+00  0.5001E-01
  -8.942  0.2390E+00  0.5240E-01
  -8.932  0.2433E+00  0.5484E-01
  -8.922  0.2476E+00  0.5731E-01
  -8.912  0.2519E+00  0.5983E-01
  -8.902  0.2560E+00  0.6239E-01
  -8.892  0.2602E+00  0.6499E-01
  -8.882  0.2643E+00  0.6764E-01
  -8.872  0.2684E+00  0.7032E-01
  -8.862  0.2725E+00  0.7305E-01
  -8.852  0.2767E+00  0.7581E-01
  -8.842  0.2808E+00  0.7862E-01
  -8.832  0.2850E+00  0.8147E-01
  -8.822  0.2892E+00  0.8436E-01
  -8.812  0.2934E+00  0.8730E-01
  -8.802  0.2976E+00  0.9027E-01
  -8.792  0.3018E+00  0.9329E-01
  -8.782  0.3059E+00  0.9635E-01
  -8.772  0.3099E+00  0.9945E-01
  -8.762  0.3138E+00  0.1026E+00
  -8.752  0.3177E+00  0.1058E+00
  -8.742  0.3214E+00  0.1090E+00
  -8.732  0.3251E+00  0.1122E+00
  -8.722  0.3286E+00  0.1155E+00
  -8.712  0.3321E+00  0.1188E+00
  -8.702  0.3356E+00  0.1222E+00
  -8.692  0.3391E+00  0.1256E+00
  -8.682  0.3426E+00  0.1290E+00
  -8.672  0.3462E+00  0.1325E+00
  -8.662  0.3499E+00  0.1360E+00
  -8.652  0.3538E+00  0.1395E+00
  -8.642  0.3578E+00  0.1431E+00
  -8.632  0.3619E+00  0.1467E+00
  -8.622  0.3662E+00  0.1504E+00
  -8.612  0.3706E+00  0.1541E+00
  -8.602  0.3750E+00  0.1578E+00
  -8.592  0.3795E+00  0.1616E+00
  -8.582  0.3839E+00  0.1655E+00
  -8.572  0.3883E+00  0.1693E+00
  -8.562  0.3926E+00  0.1733E+00
  -8.552  0.3967E+00  0.1772E+00
  -8.542  0.4006E+00  0.1812E+00
  -8.532  0.4043E+00  0.1853E+00
  -8.522  0.4078E+00  0.1894E+00
  -8.512  0.4112E+00  0.1935E+00
  -8.502  0.4144E+00  0.1976E+00
  -8.492  0.4175E+00  0.2018E+00
  -8.482  0.4205E+00  0.2060E+00
  -8.472  0.4237E+00  0.2102E+00
  -8.462  0.4269E+00  0.2145E+00
  -8.452  0.4303E+00  0.2188E+00
  -8.442  0.4340E+00  0.2231E+00
  -8.432  0.4379E+00  0.2275E+00
  -8.422  0.4422E+00  0.2319E+00
  -8.412  0.4468E+00  0.2364E+00
  -8.402  0.4516E+00  0.2409E+00
  -8.392  0.4567E+00  0.2455E+00
  -8.382  0.4620E+00  0.2501E+00
  -8.372  0.4675E+00  0.2548E+00
  -8.362  0.4730E+00  0.2595E+00
  -8.352  0.4784E+00  0.2643E+00
  -8.342  0.4837E+00  0.2691E+00
  -8.332  0.4888E+00  0.2740E+00
  -8.322  0.4937E+00  0.2790E+00
  -8.312  0.4982E+00  0.2839E+00
  -8.302  0.5024E+00  0.2890E+00
  -8.292  0.5062E+00  0.2940E+00
  -8.282  0.5098E+00  0.2991E+00
  -8.272  0.5131E+00  0.3043E+00
  -8.262  0.5163E+00  0.3094E+00
  -8.252  0.5194E+00  0.3146E+00
  -8.242  0.5226E+00  0.3198E+00
  -8.232  0.5259E+00  0.3251E+00
  -8.222  0.5295E+00  0.3304E+00
  -8.212  0.5334E+00  0.3357E+00
  -8.202  0.5378E+00  0.3411E+00
  -8.192  0.5426E+00  0.3465E+00
  -8.182  0.5479E+00  0.3520E+00
  -8.172  0.5537E+00  0.3576E+00
  -8.162  0.5600E+00  0.3632E+00
  -8.152  0.5666E+00  0.3688E+00
  -8.142  0.5735E+00  0.3746E+00
  -8.132  0.5806E+00  0.3804E+00
  -8.122  0.5878E+00  0.3862E+00
  -8.112  0.5949E+00  0.3922E+00
  -8.102  0.6019E+00  0.3982E+00
  -8.092  0.6086E+00  0.4043E+00
  -8.082  0.6150E+00  0.4104E+00
  -8.072  0.6211E+00  0.4167E+00
  -8.062  0.6267E+00  0.4229E+00
  -8.052  0.6320E+00  0.4292E+00
  -8.042  0.6370E+00  0.4356E+00
  -8.032  0.6417E+00  0.4420E+00
  -8.022  0.6462E+00  0.4485E+00
  -8.012  0.6506E+00  0.4550E+00
  -8.002  0.6551E+00  0.4615E+00
  -7.992  0.6598E+00  0.4681E+00
  -7.982  0.6648E+00  0.4748E+00
  -7.972  0.6702E+00  0.4815E+00
  -7.962  0.6761E+00  0.4883E+00
  -7.952  0.6826E+00  0.4951E+00
  -7.942  0.6898E+00  0.5020E+00
  -7.932  0.6975E+00  0.5090E+00
  -7.922  0.7059E+00  0.5160E+00
  -7.912  0.7149E+00  0.5232E+00
  -7.902  0.7245E+00  0.5304E+00
  -7.892  0.7344E+00  0.5378E+00
  -7.882  0.7447E+00  0.5452E+00
  -7.872  0.7552E+00  0.5528E+00
  -7.862  0.7658E+00  0.5604E+00
  -7.852  0.7764E+00  0.5682E+00
  -7.842  0.7868E+00  0.5760E+00
  -7.832  0.7971E+00  0.5840E+00
  -7.822  0.8072E+00  0.5921E+00
  -7.812  0.8170E+00  0.6003E+00
  -7.802  0.8267E+00  0.6085E+00
  -7.792  0.8361E+00  0.6169E+00
  -7.782  0.8455E+00  0.6253E+00
  -7.772  0.8550E+00  0.6339E+00
  -7.762  0.8647E+00  0.6425E+00
  -7.752  0.8749E+00  0.6513E+00
  -7.742  0.8855E+00  0.6601E+00
  -7.732  0.8970E+00  0.6691E+00
  -7.722  0.9093E+00  0.6782E+00
  -7.712  0.9227E+00  0.6874E+00
  -7.702  0.9372E+00  0.6968E+00
  -7.692  0.9530E+00  0.7063E+00
  -7.682  0.9700E+00  0.7160E+00
  -7.672  0.9882E+00  0.7259E+00
  -7.662  0.1008E+01  0.7360E+00
  -7.652  0.1028E+01  0.7463E+00
  -7.642  0.1049E+01  0.7568E+00
  -7.632  0.1071E+01  0.7675E+00
  -7.622  0.1093E+01  0.7784E+00
  -7.612  0.1116E+01  0.7896E+00
  -7.602  0.1138E+01  0.8009E+00
  -7.592  0.1160E+01  0.8125E+00
  -7.582  0.1182E+01  0.8244E+00
  -7.572  0.1204E+01  0.8364E+00
  -7.562  0.1225E+01  0.8487E+00
  -7.552  0.1245E+01  0.8611E+00
  -7.542  0.1264E+01  0.8737E+00
  -7.532  0.1283E+01  0.8866E+00
  -7.522  0.1301E+01  0.8996E+00
  -7.512  0.1318E+01  0.9128E+00
  -7.502  0.1335E+01  0.9261E+00
  -7.492  0.1351E+01  0.9396E+00
  -7.482  0.1367E+01  0.9533E+00
  -7.472  0.1382E+01  0.9671E+00
  -7.462  0.1396E+01  0.9811E+00
  -7.452  0.1409E+01  0.9952E+00
  -7.442  0.1422E+01  0.1009E+01
  -7.432  0.1434E+01  0.1024E+01
  -7.422  0.1445E+01  0.1038E+01
  -7.412  0.1456E+01  0.1053E+01
  -7.402  0.1465E+01  0.1067E+01
  -7.392  0.1473E+01  0.1082E+01
  -7.382  0.1480E+01  0.1097E+01
  -7.372  0.1486E+01  0.1112E+01
  -7.362  0.1492E+01  0.1127E+01
  -7.352  0.1496E+01  0.1142E+01
  -7.342  0.1500E+01  0.1157E+01
  -7.332  0.1503E+01  0.1172E+01
  -7.322  0.1506E+01  0.1187E+01
  -7.312  0.1508E+01  0.1202E+01
  -7.302  0.1511E+01  0.1217E+01
  -7.292  0.1514E+01  0.1232E+01
  -7.282  0.1517E+01  0.1247E+01
  -7.272  0.1520E+01  0.1262E+01
  -7.262  0.1523E+01  0.1278E+01
  -7.252  0.1527E+01  0.1293E+01
  -7.242  0.1532E+01  0.1308E+01
  -7.232  0.1536E+01  0.1324E+01
  -7.222  0.1542E+01  0.1339E+01
  -7.212  0.1547E+01  0.1355E+01
  -7.202  0.1553E+01  0.1370E+01
  -7.192  0.1560E+01  0.1386E+01
  -7.182  0.1567E+01  0.1401E+01
  -7.172  0.1574E+01  0.1417E+01
  -7.162  0.1582E+01  0.1433E+01
  -7.152  0.1590E+01  0.1449E+01
  -7.142  0.1599E+01  0.1465E+01
  -7.132  0.1608E+01  0.1481E+01
  -7.122  0.1617E+01  0.1497E+01
  -7.112  0.1628E+01  0.1513E+01
  -7.102  0.1638E+01  0.1530E+01
  -7.092  0.1649E+01  0.1546E+01
  -7.082  0.1660E+01  0.1563E+01
  -7.072  0.1670E+01  0.1579E+01
  -7.062  0.1681E+01  0.1596E+01
  -7.052  0.1690E+01  0.1613E+01
  -7.042  0.1699E+01  0.1630E+01
  -7.032  0.1706E+01  0.1647E+01
  -7.022  0.1711E+01  0.1664E+01
  -7.012  0.1713E+01  0.1681E+01
  -7.002  0.1712E+01  0.1699E+01
  -6.992  0.1708E+01  0.1716E+01
  -6.982  0.1699E+01  0.1733E+01
  -6.972  0.1685E+01  0.1749E+01
  -6.962  0.1665E+01  0.1766E+01
  -6.952  0.1640E+01  0.1783E+01
  -6.942  0.1609E+01  0.1799E+01
  -6.932  0.1571E+01  0.1814E+01
  -6.922  0.1527E+01  0.1830E+01
  -6.912  0.1477E+01  0.1844E+01
  -6.902  0.1420E+01  0.1859E+01
  -6.892  0.1358E+01  0.1872E+01
  -6.882  0.1291E+01  0.1885E+01
  -6.872  0.1219E+01  0.1897E+01
  -6.862  0.1143E+01  0.1909E+01
  -6.852  0.1065E+01  0.1919E+01
  -6.842  0.9855E+00  0.1929E+01
  -6.832  0.9051E+00  0.1938E+01
  -6.822  0.8250E+00  0.1946E+01
  -6.812  0.7462E+00  0.1954E+01
  -6.802  0.6697E+00  0.1961E+01
  -6.792  0.5962E+00  0.1967E+01
  -6.782  0.5264E+00  0.1972E+01
  -6.772  0.4610E+00  0.1976E+01
  -6.762  0.4002E+00  0.1980E+01
  -6.752  0.3446E+00  0.1984E+01
  -6.742  0.2941E+00  0.1987E+01
  -6.732  0.2488E+00  0.1989E+01
  -6.722  0.2086E+00  0.1991E+01
  -6.712  0.1734E+00  0.1993E+01
  -6.702  0.1428E+00  0.1995E+01
  -6.692  0.1165E+00  0.1996E+01
  -6.682  0.9425E-01  0.1997E+01
  -6.672  0.7551E-01  0.1997E+01
  -6.662  0.5995E-01  0.1998E+01
  -6.652  0.4715E-01  0.1999E+01
  -6.642  0.3673E-01  0.1999E+01
  -6.632  0.2835E-01  0.1999E+01
  -6.622  0.2167E-01  0.1999E+01
  -6.612  0.1641E-01  0.2000E+01
  -6.602  0.1231E-01  0.2000E+01
  -6.592  0.9141E-02  0.2000E+01
  -6.582  0.6725E-02  0.2000E+01
  -6.572  0.4899E-02  0.2000E+01
  -6.562  0.3535E-02  0.2000E+01
  -6.552  0.2526E-02  0.2000E+01
  -6.542  0.1787E-02  0.2000E+01
  -6.532  0.1252E-02  0.2000E+01
  -6.522  0.8686E-03  0.2000E+01
  -6.512  0.5967E-03  0.2000E+01
  -6.502  0.4059E-03  0.2000E+01
  -6.492  0.2733E-03  0.2000E+01
  -6.482  0.1823E-03  0.2000E+01
  -6.472  0.1203E-03  0.2000E+01
  -6.462  0.7864E-04  0.2000E+01
  -6.452  0.5089E-04  0.2000E+01
  -6.442  0.3260E-04  0.2000E+01
  -6.432  0.2068E-04  0.2000E+01
  -6.422  0.1298E-04  0.2000E+01
  -6.412  0.8070E-05  0.2000E+01
  -6.402  0.4965E-05  0.2000E+01
  -6.392  0.3025E-05  0.2000E+01
  -6.382  0.1824E-05  0.2000E+01
  -6.372  0.1089E-05  0.2000E+01
  -6.362  0.6431E-06  0.2000E+01
  -6.352  0.3761E-06  0.2000E+01
  -6.342  0.2178E-06  0.2000E+01
  -6.332  0.1248E-06  0.2000E+01
  -6.322  0.7077E-07  0.2000E+01
  -6.312  0.3973E-07  0.2000E+01
  -6.302  0.2208E-07  0.2000E+01
  -6.292  0.1214E-07  0.2000E+01
  -6.282  0.6611E-08  0.2000E+01
  -6.272  0.3562E-08  0.2000E+01
  -6.262  0.1899E-08  0.2000E+01
  -6.252  0.1003E-08  0.2000E+01
  -6.242  0.5237E-09  0.2000E+01
  -6.232  0.2708E-09  0.2000E+01
  -6.222  0.1386E-09  0.2000E+01
  -6.212  0.7017E-10  0.2000E+01
  -6.202  0.3517E-10  0.2000E+01
  -6.192  0.1744E-10  0.2000E+01
  -6.182  0.8563E-11  0.2000E+01
  -6.172  0.4160E-11  0.2000E+01
  -6.162  0.2000E-11  0.2000E+01
  -6.152  0.9518E-12  0.2000E+01
  -6.142  0.4482E-12  0.2000E+01
  -6.132  0.2089E-12  0.2000E+01
  -6.122  0.9632E-13  0.2000E+01
  -6.112  0.4396E-13  0.2000E+01
  -6.102  0.1985E-13  0.2000E+01
  -6.092  0.8874E-14  0.2000E+01
  -6.082  0.3925E-14  0.2000E+01
  -6.072  0.1718E-14  0.2000E+01
  -6.062  0.7441E-15  0.2000E+01
  -6.052  0.3190E-15  0.2000E+01
  -6.042  0.1353E-15  0.2000E+01
  -6.032  0.5679E-16  0.2000E+01
  -6.022  0.2359E-16  0.2000E+01
  -6.012  0.9694E-17  0.2000E+01
  -6.002  0.3943E-17  0.2000E+01
  -5.992  0.1587E-17  0.2000E+01
  -5.982  0.6320E-18  0.2000E+01
  -5.972  0.2491E-18  0.2000E+01
  -5.962  0.9712E-19  0.2000E+01
  -5.952  0.3748E-19  0.2000E+01
  -5.942  0.1431E-19  0.2000E+01
  -5.932  0.5407E-20  0.2000E+01
  -5.922  0.2022E-20  0.2000E+01
  -5.912  0.7479E-21  0.2000E+01
  -5.902  0.2738E-21  0.2000E+01
  -5.892  0.9917E-22  0.2000E+01
  -5.882  0.3555E-22  0.2000E+01
  -5.872  0.1261E-22  0.2000E+01
  -5.862  0.4424E-23  0.2000E+01
  -5.852  0.1536E-23  0.2000E+01
  -5.842  0.5278E-24  0.2000E+01
  -5.832  0.1794E-24  0.2000E+01
  -5.822  0.6036E-25  0.2000E+01
  -5.812  0.2009E-25  0.2000E+01
  -5.802  0.6617E-26  0.2000E+01
  -5.792  0.2156E-26  0.2000E+01
  -5.782  0.6953E-27  0.2000E+01
  -5.772  0.2218E-27  0.2000E+01
  -5.762  0.7003E-28  0.2000E+01
  -5.752  0.2187E-28  0.2000E+01
  -5.742  0.6760E-29  0.2000E+01
  -5.732  0.2067E-29  0.2000E+01
  -5.722  0.6255E-30  0.2000E+01
  -5.712  0.1872E-30  0.2000E+01
  -5.702  0.5546E-31  0.2000E+01
  -5.692  0.1625E-31  0.2000E+01
  -5.682  0.4713E-32  0.2000E+01
  -5.672  0.1352E-32  0.2000E+01
  -5.662  0.3839E-33  0.2000E+01
  -5.652  0.1078E-33  0.2000E+01
  -5.642  0.2996E-34  0.2000E+01
  -5.632  0.8239E-35  0.2000E+01
  -5.622  0.2241E-35  0.2000E+01
  -5.612  0.6033E-36  0.2000E+01
  -5.602  0.1607E-36  0.2000E+01
  -5.592  0.4234E-37  0.2000E+01
  -5.582  0.1104E-37  0.2000E+01
  -5.572  0.2847E-38  0.2000E+01
  -5.562  0.7266E-39  0.2000E+01
  -5.552  0.1835E-39  0.2000E+01
  -5.542  0.4583E-40  0.2000E+01
  -5.532  0.1133E-40  0.2000E+01
  -5.522  0.2770E-41  0.2000E+01
  -5.512  0.6703E-42  0.2000E+01
  -5.502  0.1604E-42  0.2000E+01
  -5.492  0.3800E-43  0.2000E+01
  -5.482  0.8905E-44  0.2000E+01
  -5.472  0.2064E-44  0.2000E+01
  -5.462  0.4735E-45  0.2000E+01
  -5.452  0.1075E-45  0.2000E+01
  -5.442  0.2413E-46  0.2000E+01
  -5.432  0.5360E-47  0.2000E+01
  -5.422  0.1178E-47  0.2000E+01
  -5.412  0.2561E-48  0.2000E+01
  -5.402  0.5510E-49  0.2000E+01
  -5.392  0.1173E-49  0.2000E+01
  -5.382  0.2469E-50  0.2000E+01
  -5.372  0.5145E-51  0.2000E+01
  -5.362  0.1060E-51  0.2000E+01
  -5.352  0.2162E-52  0.2000E+01
  -5.342  0.4362E-53  0.2000E+01
  -5.332  0.8707E-54  0.2000E+01
  -5.322  0.1720E-54  0.2000E+01
  -5.312  0.3359E-55  0.2000E+01
  -5.302  0.6493E-56  0.2000E+01
  -5.292  0.1242E-56  0.2000E+01
  -5.282  0.2349E-57  0.2000E+01
  -5.272  0.4397E-58  0.2000E+01
  -5.262  0.8143E-59  0.2000E+01
  -5.252  0.1492E-59  0.2000E+01
  -5.242  0.2704E-60  0.2000E+01
  -5.232  0.4849E-61  0.2000E+01
  -5.222  0.8602E-62  0.2000E+01
  -5.212  0.1510E-62  0.2000E+01
  -5.202  0.2622E-63  0.2000E+01
  -5.192  0.4504E-64  0.2000E+01
  -5.182  0.7655E-65  0.2000E+01
  -5.172  0.1287E-65  0.2000E+01
  -5.162  0.2141E-66  0.2000E+01
  -5.152  0.3524E-67  0.2000E+01
  -5.142  0.5737E-68  0.2000E+01
  -5.132  0.9241E-69  0.2000E+01
  -5.122  0.1473E-69  0.2000E+01
  -5.112  0.2322E-70  0.2000E+01
  -5.102  0.3621E-71  0.2000E+01
  -5.092  0.5588E-72  0.2000E+01
  -5.082  0.8530E-73  0.2000E+01
  -5.072  0.1288E-73  0.2000E+01
  -5.062  0.1925E-74  0.2000E+01
  -5.052  0.2845E-75  0.2000E+01
  -5.042  0.4161E-76  0.2000E+01
  -5.032  0.6019E-77  0.2000E+01
  -5.022  0.8615E-78  0.2000E+01
  -5.012  0.1220E-78  0.2000E+01
  -5.002  0.1709E-79  0.2000E+01
  -4.992  0.2368E-80  0.2000E+01
  -4.982  0.3248E-81  0.2000E+01
  -4.972  0.4415E-82  0.2000E+01
  -4.962  0.6024E-83  0.2000E+01
  -4.952  0.8989E-84  0.2000E+01
  -4.942  0.2175E-84  0.2000E+01
  -4.932  0.1280E-84  0.2000E+01
  -4.922  0.1164E-84  0.2000E+01
  -4.912  0.1150E-84  0.2000E+01
  -4.902  0.1148E-84  0.2000E+01
  -4.892  0.1148E-84  0.2000E+01
  -4.882  0.1148E-84  0.2000E+01
  -4.872  0.1148E-84  0.2000E+01
  -4.862  0.1148E-84  0.2000E+01
  -4.852  0.1148E-84  0.2000E+01
  -4.842  0.1148E-84  0.2000E+01
  -4.832  0.1148E-84  0.2000E+01
  -4.822  0.1148E-84  0.2000E+01
  -4.812  0.1148E-84  0.2000E+01
  -4.802  0.1148E-84  0.2000E+01
  -4.792  0.1148E-84  0.2000E+01
  -4.782  0.1148E-84  0.2000E+01
  -4.772  0.1148E-84  0.2000E+01
  -4.762  0.1148E-84  0.2000E+01
  -4.752  0.1148E-84  0.2000E+01
  -4.742  0.1148E-84  0.2000E+01
  -4.732  0.1148E-84  0.2000E+01
  -4.722  0.1148E-84  0.2000E+01
  -4.712  0.1148E-84  0.2000E+01
  -4.702  0.1148E-84  0.2000E+01
  -4.692  0.1148E-84  0.2000E+01
  -4.682  0.1148E-84  0.2000E+01
  -4.672  0.1148E-84  0.2000E+01
  -4.662  0.1148E-84  0.2000E+01
  -4.652  0.1148E-84  0.2000E+01
  -4.642  0.1148E-84  0.2000E+01
  -4.632  0.1148E-84  0.2000E+01
  -4.622  0.1148E-84  0.2000E+01
  -4.612  0.1148E-84  0.2000E+01
  -4.602  0.1148E-84  0.2000E+01
  -4.592  0.1148E-84  0.2000E+01
  -4.582  0.1148E-84  0.2000E+01
  -4.572  0.1148E-84  0.2000E+01
  -4.562  0.1148E-84  0.2000E+01
  -4.552  0.1148E-84  0.2000E+01
  -4.542  0.1148E-84  0.2000E+01
  -4.532  0.1148E-84  0.2000E+01
  -4.522  0.1148E-84  0.2000E+01
  -4.512  0.1148E-84  0.2000E+01
  -4.502  0.1148E-84  0.2000E+01
  -4.492  0.1148E-84  0.2000E+01
  -4.482  0.1148E-84  0.2000E+01
  -4.472  0.1148E-84  0.2000E+01
  -4.462  0.1148E-84  0.2000E+01
  -4.452  0.1148E-84  0.2000E+01
  -4.442  0.1148E-84  0.2000E+01
  -4.432  0.1148E-84  0.2000E+01
  -4.422  0.1148E-84  0.2000E+01
  -4.412  0.1148E-84  0.2000E+01
  -4.402  0.1148E-84  0.2000E+01
  -4.392  0.1148E-84  0.2000E+01
  -4.382  0.1148E-84  0.2000E+01
  -4.372  0.1148E-84  0.2000E+01
  -4.362  0.1148E-84  0.2000E+01
  -4.352  0.1148E-84  0.2000E+01
  -4.342  0.1148E-84  0.2000E+01
  -4.332  0.1148E-84  0.2000E+01
  -4.322  0.1148E-84  0.2000E+01
  -4.312  0.1148E-84  0.2000E+01
  -4.302  0.1148E-84  0.2000E+01
  -4.292  0.1148E-84  0.2000E+01
  -4.282  0.1148E-84  0.2000E+01
  -4.272  0.1148E-84  0.2000E+01
  -4.262  0.1148E-84  0.2000E+01
  -4.252  0.1148E-84  0.2000E+01
  -4.242  0.1148E-84  0.2000E+01
  -4.232  0.1148E-84  0.2000E+01
  -4.222  0.1148E-84  0.2000E+01
  -4.212  0.1148E-84  0.2000E+01
  -4.202  0.1148E-84  0.2000E+01
  -4.192  0.1148E-84  0.2000E+01
  -4.182  0.1148E-84  0.2000E+01
  -4.172  0.1148E-84  0.2000E+01
  -4.162  0.1148E-84  0.2000E+01
  -4.152  0.1148E-84  0.2000E+01
  -4.142  0.1148E-84  0.2000E+01
  -4.132  0.1148E-84  0.2000E+01
  -4.122  0.1148E-84  0.2000E+01
  -4.112  0.1148E-84  0.2000E+01
  -4.102  0.1148E-84  0.2000E+01
  -4.092  0.1148E-84  0.2000E+01
  -4.082  0.1148E-84  0.2000E+01
  -4.072  0.1148E-84  0.2000E+01
  -4.062  0.1148E-84  0.2000E+01
  -4.052  0.1148E-84  0.2000E+01
  -4.042  0.1148E-84  0.2000E+01
  -4.032  0.1148E-84  0.2000E+01
  -4.022  0.1148E-84  0.2000E+01
  -4.012  0.1148E-84  0.2000E+01
  -4.002  0.1148E-84  0.2000E+01
  -3.992  0.1148E-84  0.2000E+01
  -3.982  0.1148E-84  0.2000E+01
  -3.972  0.1148E-84  0.2000E+01
  -3.962  0.1148E-84  0.2000E+01
  -3.952  0.1148E-84  0.2000E+01
  -3.942  0.1148E-84  0.2000E+01
  -3.932  0.1148E-84  0.2000E+01
  -3.922  0.1148E-84  0.2000E+01
  -3.912  0.1148E-84  0.2000E+01
  -3.902  0.1148E-84  0.2000E+01
  -3.892  0.1148E-84  0.2000E+01
  -3.882  0.1148E-84  0.2000E+01
  -3.872  0.1148E-84  0.2000E+01
  -3.862  0.1148E-84  0.2000E+01
  -3.852  0.1148E-84  0.2000E+01
  -3.842  0.1148E-84  0.2000E+01
  -3.832  0.1148E-84  0.2000E+01
  -3.822  0.1148E-84  0.2000E+01
  -3.812  0.1148E-84  0.2000E+01
  -3.802  0.1148E-84  0.2000E+01
  -3.792  0.1148E-84  0.2000E+01
  -3.782  0.1148E-84  0.2000E+01
  -3.772  0.1148E-84  0.2000E+01
  -3.762  0.1148E-84  0.2000E+01
  -3.752  0.1148E-84  0.2000E+01
  -3.742  0.1148E-84  0.2000E+01
  -3.732  0.1148E-84  0.2000E+01
  -3.722  0.1148E-84  0.2000E+01
  -3.712  0.1148E-84  0.2000E+01
  -3.702  0.1148E-84  0.2000E+01
  -3.692  0.1148E-84  0.2000E+01
  -3.682  0.1148E-84  0.2000E+01
  -3.672  0.1148E-84  0.2000E+01
  -3.662  0.1148E-84  0.2000E+01
  -3.652  0.1148E-84  0.2000E+01
  -3.642  0.1148E-84  0.2000E+01
  -3.632  0.1148E-84  0.2000E+01
  -3.622  0.1148E-84  0.2000E+01
  -3.612  0.1148E-84  0.2000E+01
  -3.602  0.1148E-84  0.2000E+01
  -3.592  0.1148E-84  0.2000E+01
  -3.582  0.1148E-84  0.2000E+01
  -3.572  0.1148E-84  0.2000E+01
  -3.562  0.1148E-84  0.2000E+01
  -3.552  0.1148E-84  0.2000E+01
  -3.542  0.1148E-84  0.2000E+01
  -3.532  0.1148E-84  0.2000E+01
  -3.522  0.1148E-84  0.2000E+01
  -3.512  0.1148E-84  0.2000E+01
  -3.502  0.1148E-84  0.2000E+01
  -3.492  0.1148E-84  0.2000E+01
  -3.482  0.1148E-84  0.2000E+01
  -3.472  0.1148E-84  0.2000E+01
  -3.462  0.1148E-84  0.2000E+01
  -3.452  0.1148E-84  0.2000E+01
  -3.442  0.1148E-84  0.2000E+01
  -3.432  0.1148E-84  0.2000E+01
  -3.422  0.1149E-84  0.2000E+01
  -3.412  0.1156E-84  0.2000E+01
  -3.402  0.1210E-84  0.2000E+01
  -3.392  0.1623E-84  0.2000E+01
  -3.382  0.4754E-84  0.2000E+01
  -3.372  0.2821E-83  0.2000E+01
  -3.362  0.2020E-82  0.2000E+01
  -3.352  0.1476E-81  0.2000E+01
  -3.342  0.1071E-80  0.2000E+01
  -3.332  0.7696E-80  0.2000E+01
  -3.322  0.5470E-79  0.2000E+01
  -3.312  0.3846E-78  0.2000E+01
  -3.302  0.2676E-77  0.2000E+01
  -3.292  0.1841E-76  0.2000E+01
  -3.282  0.1253E-75  0.2000E+01
  -3.272  0.8441E-75  0.2000E+01
  -3.262  0.5624E-74  0.2000E+01
  -3.252  0.3706E-73  0.2000E+01
  -3.242  0.2416E-72  0.2000E+01
  -3.232  0.1558E-71  0.2000E+01
  -3.222  0.9943E-71  0.2000E+01
  -3.212  0.6276E-70  0.2000E+01
  -3.202  0.3919E-69  0.2000E+01
  -3.192  0.2421E-68  0.2000E+01
  -3.182  0.1479E-67  0.2000E+01
  -3.172  0.8941E-67  0.2000E+01
  -3.162  0.5347E-66  0.2000E+01
  -3.152  0.3163E-65  0.2000E+01
  -3.142  0.1851E-64  0.2000E+01
  -3.132  0.1072E-63  0.2000E+01
  -3.122  0.6138E-63  0.2000E+01
  -3.112  0.3477E-62  0.2000E+01
  -3.102  0.1949E-61  0.2000E+01
  -3.092  0.1081E-60  0.2000E+01
  -3.082  0.5927E-60  0.2000E+01
  -3.072  0.3216E-59  0.2000E+01
  -3.062  0.1726E-58  0.2000E+01
  -3.052  0.9168E-58  0.2000E+01
  -3.042  0.4816E-57  0.2000E+01
  -3.032  0.2503E-56  0.2000E+01
  -3.022  0.1287E-55  0.2000E+01
  -3.012  0.6544E-55  0.2000E+01
  -3.002  0.3292E-54  0.2000E+01
  -2.992  0.1639E-53  0.2000E+01
  -2.982  0.8068E-53  0.2000E+01
  -2.972  0.3930E-52  0.2000E+01
  -2.962  0.1894E-51  0.2000E+01
  -2.952  0.9027E-51  0.2000E+01
  -2.942  0.4257E-50  0.2000E+01
  -2.932  0.1986E-49  0.2000E+01
  -2.922  0.9164E-49  0.2000E+01
  -2.912  0.4184E-48  0.2000E+01
  -2.902  0.1890E-47  0.2000E+01
  -2.892  0.8443E-47  0.2000E+01
  -2.882  0.3732E-46  0.2000E+01
  -2.872  0.1632E-45  0.2000E+01
  -2.862  0.7058E-45  0.2000E+01
  -2.852  0.3020E-44  0.2000E+01
  -2.842  0.1279E-43  0.2000E+01
  -2.832  0.5355E-43  0.2000E+01
  -2.822  0.2219E-42  0.2000E+01
  -2.812  0.9093E-42  0.2000E+01
  -2.802  0.3687E-41  0.2000E+01
  -2.792  0.1479E-40  0.2000E+01
  -2.782  0.5869E-40  0.2000E+01
  -2.772  0.2304E-39  0.2000E+01
  -2.762  0.8947E-39  0.2000E+01
  -2.752  0.3438E-38  0.2000E+01
  -2.742  0.1307E-37  0.2000E+01
  -2.732  0.4913E-37  0.2000E+01
  -2.722  0.1827E-36  0.2000E+01
  -2.712  0.6725E-36  0.2000E+01
  -2.702  0.2448E-35  0.2000E+01
  -2.692  0.8817E-35  0.2000E+01
  -2.682  0.3142E-34  0.2000E+01
  -2.672  0.1107E-33  0.2000E+01
  -2.662  0.3861E-33  0.2000E+01
  -2.652  0.1332E-32  0.2000E+01
  -2.642  0.4546E-32  0.2000E+01
  -2.632  0.1535E-31  0.2000E+01
  -2.622  0.5128E-31  0.2000E+01
  -2.612  0.1694E-30  0.2000E+01
  -2.602  0.5540E-30  0.2000E+01
  -2.592  0.1792E-29  0.2000E+01
  -2.582  0.5733E-29  0.2000E+01
  -2.572  0.1815E-28  0.2000E+01
  -2.562  0.5684E-28  0.2000E+01
  -2.552  0.1761E-27  0.2000E+01
  -2.542  0.5399E-27  0.2000E+01
  -2.532  0.1637E-26  0.2000E+01
  -2.522  0.4912E-26  0.2000E+01
  -2.512  0.1458E-25  0.2000E+01
  -2.502  0.4282E-25  0.2000E+01
  -2.492  0.1244E-24  0.2000E+01
  -2.482  0.3577E-24  0.2000E+01
  -2.472  0.1017E-23  0.2000E+01
  -2.462  0.2862E-23  0.2000E+01
  -2.452  0.7968E-23  0.2000E+01
  -2.442  0.2195E-22  0.2000E+01
  -2.432  0.5980E-22  0.2000E+01
  -2.422  0.1612E-21  0.2000E+01
  -2.412  0.4301E-21  0.2000E+01
  -2.402  0.1135E-20  0.2000E+01
  -2.392  0.2964E-20  0.2000E+01
  -2.382  0.7659E-20  0.2000E+01
  -2.372  0.1958E-19  0.2000E+01
  -2.362  0.4952E-19  0.2000E+01
  -2.352  0.1239E-18  0.2000E+01
  -2.342  0.3069E-18  0.2000E+01
  -2.332  0.7520E-18  0.2000E+01
  -2.322  0.1823E-17  0.2000E+01
  -2.312  0.4373E-17  0.2000E+01
  -2.302  0.1038E-16  0.2000E+01
  -2.292  0.2438E-16  0.2000E+01
  -2.282  0.5666E-16  0.2000E+01
  -2.272  0.1303E-15  0.2000E+01
  -2.262  0.2965E-15  0.2000E+01
  -2.252  0.6678E-15  0.2000E+01
  -2.242  0.1488E-14  0.2000E+01
  -2.232  0.3281E-14  0.2000E+01
  -2.222  0.7160E-14  0.2000E+01
  -2.212  0.1546E-13  0.2000E+01
  -2.202  0.3304E-13  0.2000E+01
  -2.192  0.6988E-13  0.2000E+01
  -2.182  0.1463E-12  0.2000E+01
  -2.172  0.3029E-12  0.2000E+01
  -2.162  0.6210E-12  0.2000E+01
  -2.152  0.1260E-11  0.2000E+01
  -2.142  0.2530E-11  0.2000E+01
  -2.132  0.5027E-11  0.2000E+01
  -2.122  0.9889E-11  0.2000E+01
  -2.112  0.1925E-10  0.2000E+01
  -2.102  0.3710E-10  0.2000E+01
  -2.092  0.7075E-10  0.2000E+01
  -2.082  0.1336E-09  0.2000E+01
  -2.072  0.2496E-09  0.2000E+01
  -2.062  0.4618E-09  0.2000E+01
  -2.052  0.8456E-09  0.2000E+01
  -2.042  0.1533E-08  0.2000E+01
  -2.032  0.2750E-08  0.2000E+01
  -2.022  0.4886E-08  0.2000E+01
  -2.012  0.8593E-08  0.2000E+01
  -2.002  0.1496E-07  0.2000E+01
  -1.992  0.2579E-07  0.2000E+01
  -1.982  0.4401E-07  0.2000E+01
  -1.972  0.7437E-07  0.2000E+01
  -1.962  0.1244E-06  0.2000E+01
  -1.952  0.2061E-06  0.2000E+01
  -1.942  0.3381E-06  0.2000E+01
  -1.932  0.5492E-06  0.2000E+01
  -1.922  0.8833E-06  0.2000E+01
  -1.912  0.1407E-05  0.2000E+01
  -1.902  0.2219E-05  0.2000E+01
  -1.892  0.3465E-05  0.2000E+01
  -1.882  0.5360E-05  0.2000E+01
  -1.872  0.8212E-05  0.2000E+01
  -1.862  0.1246E-04  0.2000E+01
  -1.852  0.1872E-04  0.2000E+01
  -1.842  0.2787E-04  0.2000E+01
  -1.832  0.4108E-04  0.2000E+01
  -1.822  0.5998E-04  0.2000E+01
  -1.812  0.8676E-04  0.2000E+01
  -1.802  0.1243E-03  0.2000E+01
  -1.792  0.1764E-03  0.2000E+01
  -1.782  0.2481E-03  0.2000E+01
  -1.772  0.3456E-03  0.2000E+01
  -1.762  0.4769E-03  0.2000E+01
  -1.752  0.6520E-03  0.2000E+01
  -1.742  0.8831E-03  0.2000E+01
  -1.732  0.1185E-02  0.2000E+01
  -1.722  0.1576E-02  0.2000E+01
  -1.712  0.2077E-02  0.2000E+01
  -1.702  0.2713E-02  0.2000E+01
  -1.692  0.3510E-02  0.2000E+01
  -1.682  0.4502E-02  0.2000E+01
  -1.672  0.5723E-02  0.2000E+01
  -1.662  0.7210E-02  0.2000E+01
  -1.652  0.9005E-02  0.2000E+01
  -1.642  0.1115E-01  0.2001E+01
  -1.632  0.1368E-01  0.2001E+01
  -1.622  0.1665E-01  0.2001E+01
  -1.612  0.2010E-01  0.2001E+01
  -1.602  0.2405E-01  0.2001E+01
  -1.592  0.2855E-01  0.2002E+01
  -1.582  0.3362E-01  0.2002E+01
  -1.572  0.3928E-01  0.2002E+01
  -1.562  0.4554E-01  0.2003E+01
  -1.552  0.5241E-01  0.2003E+01
  -1.542  0.5987E-01  0.2004E+01
  -1.532  0.6791E-01  0.2005E+01
  -1.522  0.7651E-01  0.2005E+01
  -1.512  0.8563E-01  0.2006E+01
  -1.502  0.9523E-01  0.2007E+01
  -1.492  0.1053E+00  0.2008E+01
  -1.482  0.1157E+00  0.2009E+01
  -1.472  0.1265E+00  0.2011E+01
  -1.462  0.1376E+00  0.2012E+01
  -1.452  0.1489E+00  0.2013E+01
  -1.442  0.1604E+00  0.2015E+01
  -1.432  0.1720E+00  0.2017E+01
  -1.422  0.1837E+00  0.2019E+01
  -1.412  0.1955E+00  0.2021E+01
  -1.402  0.2072E+00  0.2023E+01
  -1.392  0.2189E+00  0.2025E+01
  -1.382  0.2305E+00  0.2027E+01
  -1.372  0.2419E+00  0.2030E+01
  -1.362  0.2531E+00  0.2032E+01
  -1.352  0.2641E+00  0.2035E+01
  -1.342  0.2747E+00  0.2037E+01
  -1.332  0.2851E+00  0.2040E+01
  -1.322  0.2950E+00  0.2043E+01
  -1.312  0.3047E+00  0.2046E+01
  -1.302  0.3140E+00  0.2049E+01
  -1.292  0.3229E+00  0.2053E+01
  -1.282  0.3316E+00  0.2056E+01
  -1.272  0.3401E+00  0.2059E+01
  -1.262  0.3484E+00  0.2063E+01
  -1.252  0.3567E+00  0.2066E+01
  -1.242  0.3649E+00  0.2070E+01
  -1.232  0.3733E+00  0.2074E+01
  -1.222  0.3818E+00  0.2078E+01
  -1.212  0.3905E+00  0.2082E+01
  -1.202  0.3995E+00  0.2086E+01
  -1.192  0.4089E+00  0.2090E+01
  -1.182  0.4185E+00  0.2094E+01
  -1.172  0.4284E+00  0.2098E+01
  -1.162  0.4385E+00  0.2102E+01
  -1.152  0.4489E+00  0.2107E+01
  -1.142  0.4593E+00  0.2112E+01
  -1.132  0.4699E+00  0.2116E+01
  -1.122  0.4805E+00  0.2121E+01
  -1.112  0.4912E+00  0.2126E+01
  -1.102  0.5018E+00  0.2131E+01
  -1.092  0.5125E+00  0.2136E+01
  -1.082  0.5233E+00  0.2141E+01
  -1.072  0.5342E+00  0.2147E+01
  -1.062  0.5453E+00  0.2152E+01
  -1.052  0.5568E+00  0.2158E+01
  -1.042  0.5687E+00  0.2163E+01
  -1.032  0.5813E+00  0.2169E+01
  -1.022  0.5946E+00  0.2175E+01
  -1.012  0.6088E+00  0.2181E+01
  -1.002  0.6241E+00  0.2188E+01
  -0.992  0.6405E+00  0.2194E+01
  -0.982  0.6581E+00  0.2200E+01
  -0.972  0.6771E+00  0.2207E+01
  -0.962  0.6974E+00  0.2214E+01
  -0.952  0.7191E+00  0.2221E+01
  -0.942  0.7423E+00  0.2229E+01
  -0.932  0.7669E+00  0.2237E+01
  -0.922  0.7930E+00  0.2244E+01
  -0.912  0.8205E+00  0.2253E+01
  -0.902  0.8494E+00  0.2261E+01
  -0.892  0.8797E+00  0.2270E+01
  -0.882  0.9114E+00  0.2279E+01
  -0.872  0.9444E+00  0.2289E+01
  -0.862  0.9787E+00  0.2298E+01
  -0.852  0.1014E+01  0.2308E+01
  -0.842  0.1051E+01  0.2319E+01
  -0.832  0.1090E+01  0.2330E+01
  -0.822  0.1129E+01  0.2341E+01
  -0.812  0.1170E+01  0.2353E+01
  -0.802  0.1212E+01  0.2365E+01
  -0.792  0.1255E+01  0.2378E+01
  -0.782  0.1300E+01  0.2391E+01
  -0.772  0.1346E+01  0.2404E+01
  -0.762  0.1393E+01  0.2418E+01
  -0.752  0.1442E+01  0.2432E+01
  -0.742  0.1491E+01  0.2447E+01
  -0.732  0.1541E+01  0.2463E+01
  -0.722  0.1592E+01  0.2479E+01
  -0.712  0.1643E+01  0.2495E+01
  -0.702  0.1694E+01  0.2512E+01
  -0.692  0.1745E+01  0.2529E+01
  -0.682  0.1795E+01  0.2547E+01
  -0.672  0.1844E+01  0.2566E+01
  -0.662  0.1891E+01  0.2585E+01
  -0.652  0.1935E+01  0.2604E+01
  -0.642  0.1977E+01  0.2624E+01
  -0.632  0.2015E+01  0.2644E+01
  -0.622  0.2049E+01  0.2664E+01
  -0.612  0.2079E+01  0.2685E+01
  -0.602  0.2103E+01  0.2706E+01
  -0.592  0.2121E+01  0.2727E+01
  -0.582  0.2134E+01  0.2749E+01
  -0.572  0.2140E+01  0.2770E+01
  -0.562  0.2139E+01  0.2792E+01
  -0.552  0.2132E+01  0.2813E+01
  -0.542  0.2118E+01  0.2834E+01
  -0.532  0.2097E+01  0.2855E+01
  -0.522  0.2070E+01  0.2876E+01
  -0.512  0.2036E+01  0.2896E+01
  -0.502  0.1996E+01  0.2916E+01
  -0.492  0.1951E+01  0.2936E+01
  -0.482  0.1900E+01  0.2955E+01
  -0.472  0.1846E+01  0.2973E+01
  -0.462  0.1787E+01  0.2991E+01
  -0.452  0.1726E+01  0.3008E+01
  -0.442  0.1662E+01  0.3025E+01
  -0.432  0.1597E+01  0.3041E+01
  -0.422  0.1531E+01  0.3056E+01
  -0.412  0.1465E+01  0.3071E+01
  -0.402  0.1400E+01  0.3085E+01
  -0.392  0.1337E+01  0.3098E+01
  -0.382  0.1275E+01  0.3111E+01
  -0.372  0.1215E+01  0.3123E+01
  -0.362  0.1159E+01  0.3135E+01
  -0.352  0.1105E+01  0.3146E+01
  -0.342  0.1055E+01  0.3156E+01
  -0.332  0.1008E+01  0.3166E+01
  -0.322  0.9643E+00  0.3176E+01
  -0.312  0.9243E+00  0.3185E+01
  -0.302  0.8877E+00  0.3194E+01
  -0.292  0.8544E+00  0.3203E+01
  -0.282  0.8242E+00  0.3211E+01
  -0.272  0.7970E+00  0.3219E+01
  -0.262  0.7726E+00  0.3227E+01
  -0.252  0.7507E+00  0.3234E+01
  -0.242  0.7312E+00  0.3241E+01
  -0.232  0.7138E+00  0.3248E+01
  -0.222  0.6983E+00  0.3255E+01
  -0.212  0.6844E+00  0.3262E+01
  -0.202  0.6719E+00  0.3269E+01
  -0.192  0.6606E+00  0.3276E+01
  -0.182  0.6502E+00  0.3282E+01
  -0.172  0.6405E+00  0.3289E+01
  -0.162  0.6313E+00  0.3295E+01
  -0.152  0.6223E+00  0.3301E+01
  -0.142  0.6135E+00  0.3307E+01
  -0.132  0.6046E+00  0.3313E+01
  -0.122  0.5956E+00  0.3319E+01
  -0.112  0.5864E+00  0.3325E+01
  -0.102  0.5769E+00  0.3331E+01
  -0.092  0.5672E+00  0.3337E+01
  -0.082  0.5572E+00  0.3342E+01
  -0.072  0.5470E+00  0.3348E+01
  -0.062  0.5367E+00  0.3353E+01
  -0.052  0.5264E+00  0.3358E+01
  -0.042  0.5163E+00  0.3363E+01
  -0.032  0.5065E+00  0.3368E+01
  -0.022  0.4970E+00  0.3373E+01
  -0.012  0.4880E+00  0.3378E+01
  -0.002  0.4796E+00  0.3383E+01
   0.008  0.4720E+00  0.3388E+01
   0.018  0.4652E+00  0.3392E+01
   0.028  0.4592E+00  0.3397E+01
   0.038  0.4541E+00  0.3402E+01
   0.048  0.4499E+00  0.3406E+01
   0.058  0.4466E+00  0.3411E+01
   0.068  0.4441E+00  0.3415E+01
   0.078  0.4424E+00  0.3419E+01
   0.088  0.4413E+00  0.3424E+01
   0.098  0.4408E+00  0.3428E+01
   0.108  0.4406E+00  0.3433E+01
   0.118  0.4405E+00  0.3437E+01
   0.128  0.4405E+00  0.3441E+01
   0.138  0.4403E+00  0.3446E+01
   0.148  0.4398E+00  0.3450E+01
   0.158  0.4386E+00  0.3455E+01
   0.168  0.4368E+00  0.3459E+01
   0.178  0.4342E+00  0.3463E+01
   0.188  0.4307E+00  0.3468E+01
   0.198  0.4262E+00  0.3472E+01
   0.208  0.4208E+00  0.3476E+01
   0.218  0.4146E+00  0.3480E+01
   0.228  0.4076E+00  0.3484E+01
   0.238  0.4001E+00  0.3488E+01
   0.248  0.3921E+00  0.3492E+01
   0.258  0.3839E+00  0.3496E+01
   0.268  0.3758E+00  0.3500E+01
   0.278  0.3679E+00  0.3504E+01
   0.288  0.3604E+00  0.3507E+01
   0.298  0.3535E+00  0.3511E+01
   0.308  0.3474E+00  0.3514E+01
   0.318  0.3421E+00  0.3518E+01
   0.328  0.3377E+00  0.3521E+01
   0.338  0.3342E+00  0.3524E+01
   0.348  0.3314E+00  0.3528E+01
   0.358  0.3294E+00  0.3531E+01
   0.368  0.3280E+00  0.3534E+01
   0.378  0.3270E+00  0.3537E+01
   0.388  0.3262E+00  0.3541E+01
   0.398  0.3256E+00  0.3544E+01
   0.408  0.3250E+00  0.3547E+01
   0.418  0.3242E+00  0.3550E+01
   0.428  0.3233E+00  0.3554E+01
   0.438  0.3221E+00  0.3557E+01
   0.448  0.3207E+00  0.3560E+01
   0.458  0.3192E+00  0.3563E+01
   0.468  0.3178E+00  0.3566E+01
   0.478  0.3165E+00  0.3570E+01
   0.488  0.3155E+00  0.3573E+01
   0.498  0.3152E+00  0.3576E+01
   0.508  0.3156E+00  0.3579E+01
   0.518  0.3170E+00  0.3582E+01
   0.528  0.3195E+00  0.3585E+01
   0.538  0.3233E+00  0.3589E+01
   0.548  0.3286E+00  0.3592E+01
   0.558  0.3352E+00  0.3595E+01
   0.568  0.3433E+00  0.3599E+01
   0.578  0.3527E+00  0.3602E+01
   0.588  0.3634E+00  0.3606E+01
   0.598  0.3751E+00  0.3610E+01
   0.608  0.3877E+00  0.3614E+01
   0.618  0.4008E+00  0.3618E+01
   0.628  0.4143E+00  0.3622E+01
   0.638  0.4278E+00  0.3626E+01
   0.648  0.4411E+00  0.3630E+01
   0.658  0.4540E+00  0.3635E+01
   0.668  0.4663E+00  0.3640E+01
   0.678  0.4779E+00  0.3644E+01
   0.688  0.4887E+00  0.3649E+01
   0.698  0.4987E+00  0.3654E+01
   0.708  0.5081E+00  0.3659E+01
   0.718  0.5169E+00  0.3665E+01
   0.728  0.5252E+00  0.3670E+01
   0.738  0.5335E+00  0.3675E+01
   0.748  0.5419E+00  0.3681E+01
   0.758  0.5507E+00  0.3686E+01
   0.768  0.5602E+00  0.3692E+01
   0.778  0.5707E+00  0.3697E+01
   0.788  0.5823E+00  0.3703E+01
   0.798  0.5954E+00  0.3709E+01
   0.808  0.6099E+00  0.3715E+01
   0.818  0.6260E+00  0.3721E+01
   0.828  0.6435E+00  0.3728E+01
   0.838  0.6625E+00  0.3735E+01
   0.848  0.6828E+00  0.3741E+01
   0.858  0.7040E+00  0.3748E+01
   0.868  0.7260E+00  0.3756E+01
   0.878  0.7482E+00  0.3763E+01
   0.888  0.7705E+00  0.3771E+01
   0.898  0.7924E+00  0.3779E+01
   0.908  0.8135E+00  0.3787E+01
   0.918  0.8335E+00  0.3795E+01
   0.928  0.8521E+00  0.3804E+01
   0.938  0.8690E+00  0.3812E+01
   0.948  0.8841E+00  0.3821E+01
   0.958  0.8972E+00  0.3830E+01
   0.968  0.9083E+00  0.3839E+01
   0.978  0.9174E+00  0.3849E+01
   0.988  0.9247E+00  0.3858E+01
   0.998  0.9304E+00  0.3867E+01
   1.008  0.9347E+00  0.3876E+01
   1.018  0.9380E+00  0.3886E+01
   1.028  0.9404E+00  0.3895E+01
   1.038  0.9423E+00  0.3905E+01
   1.048  0.9441E+00  0.3914E+01
   1.058  0.9460E+00  0.3924E+01
   1.068  0.9482E+00  0.3933E+01
   1.078  0.9508E+00  0.3943E+01
   1.088  0.9540E+00  0.3952E+01
   1.098  0.9577E+00  0.3962E+01
   1.108  0.9619E+00  0.3971E+01
   1.118  0.9665E+00  0.3981E+01
   1.128  0.9711E+00  0.3991E+01
   1.138  0.9757E+00  0.4000E+01
   1.148  0.9797E+00  0.4010E+01
   1.158  0.9830E+00  0.4020E+01
   1.168  0.9853E+00  0.4030E+01
   1.178  0.9861E+00  0.4040E+01
   1.188  0.9852E+00  0.4050E+01
   1.198  0.9824E+00  0.4059E+01
   1.208  0.9776E+00  0.4069E+01
   1.218  0.9707E+00  0.4079E+01
   1.228  0.9617E+00  0.4088E+01
   1.238  0.9507E+00  0.4098E+01
   1.248  0.9380E+00  0.4107E+01
   1.258  0.9237E+00  0.4117E+01
   1.268  0.9084E+00  0.4126E+01
   1.278  0.8924E+00  0.4135E+01
   1.288  0.8763E+00  0.4143E+01
   1.298  0.8605E+00  0.4152E+01
   1.308  0.8455E+00  0.4160E+01
   1.318  0.8320E+00  0.4169E+01
   1.328  0.8205E+00  0.4177E+01
   1.338  0.8112E+00  0.4185E+01
   1.348  0.8047E+00  0.4193E+01
   1.358  0.8012E+00  0.4201E+01
   1.368  0.8009E+00  0.4209E+01
   1.378  0.8037E+00  0.4217E+01
   1.388  0.8097E+00  0.4225E+01
   1.398  0.8187E+00  0.4233E+01
   1.408  0.8303E+00  0.4242E+01
   1.418  0.8442E+00  0.4250E+01
   1.428  0.8598E+00  0.4259E+01
   1.438  0.8765E+00  0.4268E+01
   1.448  0.8938E+00  0.4277E+01
   1.458  0.9110E+00  0.4286E+01
   1.468  0.9275E+00  0.4295E+01
   1.478  0.9427E+00  0.4304E+01
   1.488  0.9560E+00  0.4314E+01
   1.498  0.9671E+00  0.4324E+01
   1.508  0.9757E+00  0.4333E+01
   1.518  0.9814E+00  0.4343E+01
   1.528  0.9843E+00  0.4353E+01
   1.538  0.9842E+00  0.4363E+01
   1.548  0.9815E+00  0.4373E+01
   1.558  0.9763E+00  0.4382E+01
   1.568  0.9690E+00  0.4392E+01
   1.578  0.9600E+00  0.4402E+01
   1.588  0.9500E+00  0.4411E+01
   1.598  0.9393E+00  0.4421E+01
   1.608  0.9286E+00  0.4430E+01
   1.618  0.9184E+00  0.4439E+01
   1.628  0.9093E+00  0.4448E+01
   1.638  0.9019E+00  0.4457E+01
   1.648  0.8964E+00  0.4466E+01
   1.658  0.8934E+00  0.4475E+01
   1.668  0.8930E+00  0.4484E+01
   1.678  0.8955E+00  0.4493E+01
   1.688  0.9008E+00  0.4502E+01
   1.698  0.9090E+00  0.4511E+01
   1.708  0.9198E+00  0.4520E+01
   1.718  0.9330E+00  0.4530E+01
   1.728  0.9482E+00  0.4539E+01
   1.738  0.9649E+00  0.4549E+01
   1.748  0.9826E+00  0.4559E+01
   1.758  0.1001E+01  0.4569E+01
   1.768  0.1018E+01  0.4579E+01
   1.778  0.1035E+01  0.4589E+01
   1.788  0.1051E+01  0.4600E+01
   1.798  0.1064E+01  0.4610E+01
   1.808  0.1076E+01  0.4621E+01
   1.818  0.1084E+01  0.4632E+01
   1.828  0.1090E+01  0.4643E+01
   1.838  0.1093E+01  0.4654E+01
   1.848  0.1093E+01  0.4665E+01
   1.858  0.1091E+01  0.4676E+01
   1.868  0.1086E+01  0.4686E+01
   1.878  0.1079E+01  0.4697E+01
   1.888  0.1071E+01  0.4708E+01
   1.898  0.1062E+01  0.4718E+01
   1.908  0.1053E+01  0.4729E+01
   1.918  0.1045E+01  0.4739E+01
   1.928  0.1037E+01  0.4750E+01
   1.938  0.1030E+01  0.4760E+01
   1.948  0.1026E+01  0.4770E+01
   1.958  0.1024E+01  0.4781E+01
   1.968  0.1024E+01  0.4791E+01
   1.978  0.1027E+01  0.4801E+01
   1.988  0.1033E+01  0.4811E+01
   1.998  0.1041E+01  0.4822E+01
   2.008  0.1052E+01  0.4832E+01
   2.018  0.1066E+01  0.4843E+01
   2.028  0.1081E+01  0.4854E+01
   2.038  0.1099E+01  0.4865E+01
   2.048  0.1117E+01  0.4876E+01
   2.058  0.1137E+01  0.4887E+01
   2.068  0.1158E+01  0.4899E+01
   2.078  0.1179E+01  0.4911E+01
   2.088  0.1200E+01  0.4923E+01
   2.098  0.1221E+01  0.4935E+01
   2.108  0.1242E+01  0.4947E+01
   2.118  0.1261E+01  0.4960E+01
   2.128  0.1280E+01  0.4973E+01
   2.138  0.1297E+01  0.4986E+01
   2.148  0.1313E+01  0.4999E+01
   2.158  0.1327E+01  0.5012E+01
   2.168  0.1340E+01  0.5026E+01
   2.178  0.1351E+01  0.5039E+01
   2.188  0.1361E+01  0.5053E+01
   2.198  0.1369E+01  0.5066E+01
   2.208  0.1376E+01  0.5080E+01
   2.218  0.1382E+01  0.5094E+01
   2.228  0.1386E+01  0.5108E+01
   2.238  0.1390E+01  0.5122E+01
   2.248  0.1393E+01  0.5136E+01
   2.258  0.1396E+01  0.5150E+01
   2.268  0.1399E+01  0.5164E+01
   2.278  0.1402E+01  0.5178E+01
   2.288  0.1406E+01  0.5192E+01
   2.298  0.1411E+01  0.5206E+01
   2.308  0.1416E+01  0.5220E+01
   2.318  0.1423E+01  0.5234E+01
   2.328  0.1430E+01  0.5249E+01
   2.338  0.1439E+01  0.5263E+01
   2.348  0.1449E+01  0.5277E+01
   2.358  0.1460E+01  0.5292E+01
   2.368  0.1472E+01  0.5307E+01
   2.378  0.1485E+01  0.5322E+01
   2.388  0.1497E+01  0.5337E+01
   2.398  0.1510E+01  0.5352E+01
   2.408  0.1522E+01  0.5367E+01
   2.418  0.1534E+01  0.5382E+01
   2.428  0.1544E+01  0.5398E+01
   2.438  0.1552E+01  0.5413E+01
   2.448  0.1558E+01  0.5429E+01
   2.458  0.1561E+01  0.5444E+01
   2.468  0.1561E+01  0.5460E+01
   2.478  0.1558E+01  0.5476E+01
   2.488  0.1552E+01  0.5491E+01
   2.498  0.1542E+01  0.5506E+01
   2.508  0.1530E+01  0.5522E+01
   2.518  0.1514E+01  0.5537E+01
   2.528  0.1497E+01  0.5552E+01
   2.538  0.1477E+01  0.5567E+01
   2.548  0.1456E+01  0.5581E+01
   2.558  0.1434E+01  0.5596E+01
   2.568  0.1413E+01  0.5610E+01
   2.578  0.1392E+01  0.5624E+01
   2.588  0.1372E+01  0.5637E+01
   2.598  0.1354E+01  0.5651E+01
   2.608  0.1340E+01  0.5664E+01
   2.618  0.1328E+01  0.5678E+01
   2.628  0.1319E+01  0.5691E+01
   2.638  0.1314E+01  0.5704E+01
   2.648  0.1313E+01  0.5717E+01
   2.658  0.1315E+01  0.5730E+01
   2.668  0.1321E+01  0.5743E+01
   2.678  0.1329E+01  0.5757E+01
   2.688  0.1341E+01  0.5770E+01
   2.698  0.1355E+01  0.5784E+01
   2.708  0.1371E+01  0.5797E+01
   2.718  0.1388E+01  0.5811E+01
   2.728  0.1406E+01  0.5825E+01
   2.738  0.1424E+01  0.5839E+01
   2.748  0.1441E+01  0.5854E+01
   2.758  0.1459E+01  0.5868E+01
   2.768  0.1475E+01  0.5883E+01
   2.778  0.1489E+01  0.5898E+01
   2.788  0.1502E+01  0.5913E+01
   2.798  0.1513E+01  0.5928E+01
   2.808  0.1522E+01  0.5944E+01
   2.818  0.1529E+01  0.5959E+01
   2.828  0.1534E+01  0.5974E+01
   2.838  0.1537E+01  0.5990E+01
   2.848  0.1538E+01  0.6005E+01
   2.858  0.1537E+01  0.6020E+01
   2.868  0.1534E+01  0.6036E+01
   2.878  0.1529E+01  0.6051E+01
   2.888  0.1524E+01  0.6066E+01
   2.898  0.1517E+01  0.6081E+01
   2.908  0.1509E+01  0.6096E+01
   2.918  0.1500E+01  0.6111E+01
   2.928  0.1491E+01  0.6126E+01
   2.938  0.1482E+01  0.6141E+01
   2.948  0.1472E+01  0.6156E+01
   2.958  0.1463E+01  0.6170E+01
   2.968  0.1453E+01  0.6185E+01
   2.978  0.1444E+01  0.6199E+01
   2.988  0.1435E+01  0.6214E+01
   2.998  0.1426E+01  0.6228E+01
   3.008  0.1418E+01  0.6242E+01
   3.018  0.1410E+01  0.6256E+01
   3.028  0.1402E+01  0.6270E+01
   3.038  0.1395E+01  0.6284E+01
   3.048  0.1388E+01  0.6298E+01
   3.058  0.1381E+01  0.6312E+01
   3.068  0.1375E+01  0.6326E+01
   3.078  0.1369E+01  0.6339E+01
   3.088  0.1363E+01  0.6353E+01
   3.098  0.1358E+01  0.6367E+01
   3.108  0.1353E+01  0.6380E+01
   3.118  0.1349E+01  0.6394E+01
   3.128  0.1345E+01  0.6407E+01
   3.138  0.1343E+01  0.6421E+01
   3.148  0.1341E+01  0.6434E+01
   3.158  0.1340E+01  0.6447E+01
   3.168  0.1341E+01  0.6461E+01
   3.178  0.1343E+01  0.6474E+01
   3.188  0.1346E+01  0.6488E+01
   3.198  0.1351E+01  0.6501E+01
   3.208  0.1356E+01  0.6515E+01
   3.218  0.1363E+01  0.6528E+01
   3.228  0.1371E+01  0.6542E+01
   3.238  0.1380E+01  0.6556E+01
   3.248  0.1390E+01  0.6570E+01
   3.258  0.1399E+01  0.6584E+01
   3.268  0.1409E+01  0.6598E+01
   3.278  0.1419E+01  0.6612E+01
   3.288  0.1428E+01  0.6626E+01
   3.298  0.1436E+01  0.6641E+01
   3.308  0.1443E+01  0.6655E+01
   3.318  0.1449E+01  0.6670E+01
   3.328  0.1453E+01  0.6684E+01
   3.338  0.1457E+01  0.6699E+01
   3.348  0.1458E+01  0.6713E+01
   3.358  0.1458E+01  0.6728E+01
   3.368  0.1457E+01  0.6742E+01
   3.378  0.1454E+01  0.6757E+01
   3.388  0.1450E+01  0.6771E+01
   3.398  0.1445E+01  0.6786E+01
   3.408  0.1440E+01  0.6800E+01
   3.418  0.1433E+01  0.6815E+01
   3.428  0.1426E+01  0.6829E+01
   3.438  0.1419E+01  0.6843E+01
   3.448  0.1412E+01  0.6857E+01
   3.458  0.1405E+01  0.6871E+01
   3.468  0.1398E+01  0.6885E+01
   3.478  0.1391E+01  0.6899E+01
   3.488  0.1386E+01  0.6913E+01
   3.498  0.1381E+01  0.6927E+01
   3.508  0.1377E+01  0.6941E+01
   3.518  0.1374E+01  0.6954E+01
   3.528  0.1372E+01  0.6968E+01
   3.538  0.1371E+01  0.6982E+01
   3.548  0.1371E+01  0.6995E+01
   3.558  0.1372E+01  0.7009E+01
   3.568  0.1374E+01  0.7023E+01
   3.578  0.1377E+01  0.7037E+01
   3.588  0.1380E+01  0.7050E+01
   3.598  0.1384E+01  0.7064E+01
   3.608  0.1389E+01  0.7078E+01
   3.618  0.1393E+01  0.7092E+01
   3.628  0.1398E+01  0.7106E+01
   3.638  0.1402E+01  0.7120E+01
   3.648  0.1406E+01  0.7134E+01
   3.658  0.1408E+01  0.7148E+01
   3.668  0.1410E+01  0.7162E+01
   3.678  0.1411E+01  0.7176E+01
   3.688  0.1411E+01  0.7191E+01
   3.698  0.1409E+01  0.7205E+01
   3.708  0.1406E+01  0.7219E+01
   3.718  0.1401E+01  0.7233E+01
   3.728  0.1395E+01  0.7247E+01
   3.738  0.1388E+01  0.7261E+01
   3.748  0.1379E+01  0.7274E+01
   3.758  0.1369E+01  0.7288E+01
   3.768  0.1358E+01  0.7302E+01
   3.778  0.1346E+01  0.7315E+01
   3.788  0.1333E+01  0.7328E+01
   3.798  0.1319E+01  0.7342E+01
   3.808  0.1304E+01  0.7355E+01
   3.818  0.1289E+01  0.7368E+01
   3.828  0.1274E+01  0.7380E+01
   3.838  0.1258E+01  0.7393E+01
   3.848  0.1242E+01  0.7405E+01
   3.858  0.1225E+01  0.7418E+01
   3.868  0.1208E+01  0.7430E+01
   3.878  0.1191E+01  0.7442E+01
   3.888  0.1174E+01  0.7453E+01
   3.898  0.1157E+01  0.7465E+01
   3.908  0.1139E+01  0.7476E+01
   3.918  0.1121E+01  0.7487E+01
   3.928  0.1104E+01  0.7498E+01
   3.938  0.1086E+01  0.7509E+01
   3.948  0.1069E+01  0.7520E+01
   3.958  0.1052E+01  0.7531E+01
   3.968  0.1036E+01  0.7541E+01
   3.978  0.1020E+01  0.7551E+01
   3.988  0.1004E+01  0.7561E+01
   3.998  0.9889E+00  0.7571E+01
   4.008  0.9744E+00  0.7581E+01
   4.018  0.9604E+00  0.7590E+01
   4.028  0.9469E+00  0.7600E+01
   4.038  0.9337E+00  0.7609E+01
   4.048  0.9209E+00  0.7618E+01
   4.058  0.9082E+00  0.7627E+01
   4.068  0.8956E+00  0.7636E+01
   4.078  0.8831E+00  0.7645E+01
   4.088  0.8705E+00  0.7654E+01
   4.098  0.8578E+00  0.7663E+01
   4.108  0.8450E+00  0.7671E+01
   4.118  0.8321E+00  0.7679E+01
   4.128  0.8190E+00  0.7688E+01
   4.138  0.8059E+00  0.7696E+01
   4.148  0.7928E+00  0.7703E+01
   4.158  0.7797E+00  0.7711E+01
   4.168  0.7668E+00  0.7719E+01
   4.178  0.7541E+00  0.7727E+01
   4.188  0.7416E+00  0.7734E+01
   4.198  0.7294E+00  0.7741E+01
   4.208  0.7175E+00  0.7748E+01
   4.218  0.7059E+00  0.7755E+01
   4.228  0.6946E+00  0.7762E+01
   4.238  0.6836E+00  0.7769E+01
   4.248  0.6728E+00  0.7776E+01
   4.258  0.6622E+00  0.7783E+01
   4.268  0.6517E+00  0.7789E+01
   4.278  0.6413E+00  0.7796E+01
   4.288  0.6310E+00  0.7802E+01
   4.298  0.6208E+00  0.7808E+01
   4.308  0.6106E+00  0.7814E+01
   4.318  0.6004E+00  0.7820E+01
   4.328  0.5902E+00  0.7826E+01
   4.338  0.5802E+00  0.7832E+01
   4.348  0.5702E+00  0.7838E+01
   4.358  0.5604E+00  0.7843E+01
   4.368  0.5507E+00  0.7849E+01
   4.378  0.5412E+00  0.7854E+01
   4.388  0.5320E+00  0.7859E+01
   4.398  0.5230E+00  0.7865E+01
   4.408  0.5142E+00  0.7870E+01
   4.418  0.5056E+00  0.7875E+01
   4.428  0.4973E+00  0.7880E+01
   4.438  0.4892E+00  0.7885E+01
   4.448  0.4813E+00  0.7889E+01
   4.458  0.4735E+00  0.7894E+01
   4.468  0.4659E+00  0.7899E+01
   4.478  0.4583E+00  0.7903E+01
   4.488  0.4508E+00  0.7908E+01
   4.498  0.4433E+00  0.7912E+01
   4.508  0.4357E+00  0.7917E+01
   4.518  0.4279E+00  0.7921E+01
   4.528  0.4199E+00  0.7925E+01
   4.538  0.4117E+00  0.7929E+01
   4.548  0.4031E+00  0.7933E+01
   4.558  0.3941E+00  0.7937E+01
   4.568  0.3847E+00  0.7941E+01
   4.578  0.3747E+00  0.7945E+01
   4.588  0.3642E+00  0.7949E+01
   4.598  0.3532E+00  0.7952E+01
   4.608  0.3416E+00  0.7956E+01
   4.618  0.3294E+00  0.7959E+01
   4.628  0.3168E+00  0.7962E+01
   4.638  0.3036E+00  0.7965E+01
   4.648  0.2900E+00  0.7968E+01
   4.658  0.2761E+00  0.7971E+01
   4.668  0.2619E+00  0.7973E+01
   4.678  0.2474E+00  0.7976E+01
   4.688  0.2329E+00  0.7978E+01
   4.698  0.2183E+00  0.7980E+01
   4.708  0.2038E+00  0.7982E+01
   4.718  0.1895E+00  0.7984E+01
   4.728  0.1754E+00  0.7986E+01
   4.738  0.1616E+00  0.7988E+01
   4.748  0.1482E+00  0.7989E+01
   4.758  0.1352E+00  0.7990E+01
   4.768  0.1228E+00  0.7992E+01
   4.778  0.1109E+00  0.7993E+01
   4.788  0.9959E-01  0.7994E+01
   4.798  0.8894E-01  0.7995E+01
   4.808  0.7897E-01  0.7995E+01
   4.818  0.6968E-01  0.7996E+01
   4.828  0.6109E-01  0.7997E+01
   4.838  0.5321E-01  0.7997E+01
   4.848  0.4603E-01  0.7998E+01
   4.858  0.3954E-01  0.7998E+01
   4.868  0.3372E-01  0.7998E+01
   4.878  0.2855E-01  0.7999E+01
   4.888  0.2398E-01  0.7999E+01
   4.898  0.1999E-01  0.7999E+01
   4.908  0.1653E-01  0.7999E+01
   4.918  0.1355E-01  0.7999E+01
   4.928  0.1102E-01  0.8000E+01
   4.938  0.8889E-02  0.8000E+01
   4.948  0.7107E-02  0.8000E+01
   4.958  0.5632E-02  0.8000E+01
   4.968  0.4424E-02  0.8000E+01
   4.978  0.3444E-02  0.8000E+01
   4.988  0.2656E-02  0.8000E+01
   4.998  0.2030E-02  0.8000E+01
   5.008  0.1537E-02  0.8000E+01
   5.018  0.1153E-02  0.8000E+01
   5.028  0.8567E-03  0.8000E+01
   5.038  0.6304E-03  0.8000E+01
   5.048  0.4595E-03  0.8000E+01
   5.058  0.3317E-03  0.8000E+01
   5.068  0.2371E-03  0.8000E+01
   5.078  0.1678E-03  0.8000E+01
   5.088  0.1176E-03  0.8000E+01
   5.098  0.8159E-04  0.8000E+01
   5.108  0.5605E-04  0.8000E+01
   5.118  0.3813E-04  0.8000E+01
   5.128  0.2567E-04  0.8000E+01
   5.138  0.1711E-04  0.8000E+01
   5.148  0.1129E-04  0.8000E+01
   5.158  0.7375E-05  0.8000E+01
   5.168  0.4768E-05  0.8000E+01
   5.178  0.3051E-05  0.8000E+01
   5.188  0.1933E-05  0.8000E+01
   5.198  0.1212E-05  0.8000E+01
   5.208  0.7520E-06  0.8000E+01
   5.218  0.4618E-06  0.8000E+01
   5.228  0.2807E-06  0.8000E+01
   5.238  0.1689E-06  0.8000E+01
   5.248  0.1006E-06  0.8000E+01
   5.258  0.5925E-07  0.8000E+01
   5.268  0.3455E-07  0.8000E+01
   5.278  0.1994E-07  0.8000E+01
   5.288  0.1139E-07  0.8000E+01
   5.298  0.6436E-08  0.8000E+01
   5.308  0.3600E-08  0.8000E+01
   5.318  0.1992E-08  0.8000E+01
   5.328  0.1091E-08  0.8000E+01
   5.338  0.5915E-09  0.8000E+01
   5.348  0.3173E-09  0.8000E+01
   5.358  0.1684E-09  0.8000E+01
   5.368  0.8846E-10  0.8000E+01
   5.378  0.4598E-10  0.8000E+01
   5.388  0.2365E-10  0.8000E+01
   5.398  0.1204E-10  0.8000E+01
   5.408  0.6062E-11  0.8000E+01
   5.418  0.3021E-11  0.8000E+01
   5.428  0.1490E-11  0.8000E+01
   5.438  0.7271E-12  0.8000E+01
   5.448  0.3511E-12  0.8000E+01
   5.458  0.1678E-12  0.8000E+01
   5.468  0.7932E-13  0.8000E+01
   5.478  0.3711E-13  0.8000E+01
   5.488  0.1718E-13  0.8000E+01
   5.498  0.7871E-14  0.8000E+01
   5.508  0.3568E-14  0.8000E+01
   5.518  0.1600E-14  0.8000E+01
   5.528  0.7103E-15  0.8000E+01
   5.538  0.3119E-15  0.8000E+01
   5.548  0.1356E-15  0.8000E+01
   5.558  0.5829E-16  0.8000E+01
   5.568  0.2480E-16  0.8000E+01
   5.578  0.1044E-16  0.8000E+01
   5.588  0.4350E-17  0.8000E+01
   5.598  0.1793E-17  0.8000E+01
   5.608  0.7313E-18  0.8000E+01
   5.618  0.2952E-18  0.8000E+01
   5.628  0.1179E-18  0.8000E+01
   5.638  0.4657E-19  0.8000E+01
   5.648  0.1821E-19  0.8000E+01
   5.658  0.7045E-20  0.8000E+01
   5.668  0.2697E-20  0.8000E+01
   5.678  0.1021E-20  0.8000E+01
   5.688  0.3828E-21  0.8000E+01
   5.698  0.1420E-21  0.8000E+01
   5.708  0.5209E-22  0.8000E+01
   5.718  0.1891E-22  0.8000E+01
   5.728  0.6793E-23  0.8000E+01
   5.738  0.2415E-23  0.8000E+01
   5.748  0.8492E-24  0.8000E+01
   5.758  0.2955E-24  0.8000E+01
   5.768  0.1017E-24  0.8000E+01
   5.778  0.3466E-25  0.8000E+01
   5.788  0.1168E-25  0.8000E+01
   5.798  0.3897E-26  0.8000E+01
   5.808  0.1286E-26  0.8000E+01
   5.818  0.4199E-27  0.8000E+01
   5.828  0.1357E-27  0.8000E+01
   5.838  0.4337E-28  0.8000E+01
   5.848  0.1372E-28  0.8000E+01
   5.858  0.4292E-29  0.8000E+01
   5.868  0.1329E-29  0.8000E+01
   5.878  0.4072E-30  0.8000E+01
   5.888  0.1234E-30  0.8000E+01
   5.898  0.3701E-31  0.8000E+01
   5.908  0.1098E-31  0.8000E+01
   5.918  0.3225E-32  0.8000E+01
   5.928  0.9367E-33  0.8000E+01
   5.938  0.2692E-33  0.8000E+01
   5.948  0.7655E-34  0.8000E+01
   5.958  0.2154E-34  0.8000E+01
   5.968  0.5995E-35  0.8000E+01
   5.978  0.1651E-35  0.8000E+01
   5.988  0.4499E-36  0.8000E+01
   5.998  0.1213E-36  0.8000E+01
   6.008  0.3236E-37  0.8000E+01
   6.018  0.8540E-38  0.8000E+01
   6.028  0.2230E-38  0.8000E+01
   6.038  0.5760E-39  0.8000E+01
   6.048  0.1472E-39  0.8000E+01
   6.058  0.3723E-40  0.8000E+01
   6.068  0.9315E-41  0.8000E+01
   6.078  0.2306E-41  0.8000E+01
   6.088  0.5647E-42  0.8000E+01
   6.098  0.1368E-42  0.8000E+01
   6.108  0.3280E-43  0.8000E+01
   6.118  0.7780E-44  0.8000E+01
   6.128  0.1826E-44  0.8000E+01
   6.138  0.4238E-45  0.8000E+01
   6.148  0.9735E-46  0.8000E+01
   6.158  0.2212E-46  0.8000E+01
   6.168  0.4973E-47  0.8000E+01
   6.178  0.1106E-47  0.8000E+01
   6.188  0.2434E-48  0.8000E+01
   6.198  0.5300E-49  0.8000E+01
   6.208  0.1142E-49  0.8000E+01
   6.218  0.2433E-50  0.8000E+01
   6.228  0.5129E-51  0.8000E+01
   6.238  0.1070E-51  0.8000E+01
   6.248  0.2207E-52  0.8000E+01
   6.258  0.4507E-53  0.8000E+01
   6.268  0.9102E-54  0.8000E+01
   6.278  0.1819E-54  0.8000E+01
   6.288  0.3596E-55  0.8000E+01
   6.298  0.7033E-56  0.8000E+01
   6.308  0.1361E-56  0.8000E+01
   6.318  0.2605E-57  0.8000E+01
   6.328  0.4933E-58  0.8000E+01
   6.338  0.9261E-59  0.8000E+01
   6.348  0.1812E-59  0.8000E+01
   6.358  0.8547E-60  0.8000E+01
   6.368  0.2986E-59  0.8000E+01
   6.378  0.1571E-58  0.8000E+01
   6.388  0.8325E-58  0.8000E+01
   6.398  0.4367E-57  0.8000E+01
   6.408  0.2266E-56  0.8000E+01
   6.418  0.1163E-55  0.8000E+01
   6.428  0.5908E-55  0.8000E+01
   6.438  0.2968E-54  0.8000E+01
   6.448  0.1475E-53  0.8000E+01
   6.458  0.7253E-53  0.8000E+01
   6.468  0.3528E-52  0.8000E+01
   6.478  0.1697E-51  0.8000E+01
   6.488  0.8078E-51  0.8000E+01
   6.498  0.3804E-50  0.8000E+01
   6.508  0.1772E-49  0.8000E+01
   6.518  0.8164E-49  0.8000E+01
   6.528  0.3722E-48  0.8000E+01
   6.538  0.1678E-47  0.8000E+01
   6.548  0.7486E-47  0.8000E+01
   6.558  0.3304E-46  0.8000E+01
   6.568  0.1442E-45  0.8000E+01
   6.578  0.6229E-45  0.8000E+01
   6.588  0.2661E-44  0.8000E+01
   6.598  0.1125E-43  0.8000E+01
   6.608  0.4702E-43  0.8000E+01
   6.618  0.1945E-42  0.8000E+01
   6.628  0.7958E-42  0.8000E+01
   6.638  0.3221E-41  0.8000E+01
   6.648  0.1290E-40  0.8000E+01
   6.658  0.5109E-40  0.8000E+01
   6.668  0.2002E-39  0.8000E+01
   6.678  0.7760E-39  0.8000E+01
   6.688  0.2976E-38  0.8000E+01
   6.698  0.1129E-37  0.8000E+01
   6.708  0.4236E-37  0.8000E+01
   6.718  0.1573E-36  0.8000E+01
   6.728  0.5776E-36  0.8000E+01
   6.738  0.2098E-35  0.8000E+01
   6.748  0.7542E-35  0.8000E+01
   6.758  0.2681E-34  0.8000E+01
   6.768  0.9431E-34  0.8000E+01
   6.778  0.3282E-33  0.8000E+01
   6.788  0.1130E-32  0.8000E+01
   6.798  0.3846E-32  0.8000E+01
   6.808  0.1296E-31  0.8000E+01
   6.818  0.4317E-31  0.8000E+01
   6.828  0.1423E-30  0.8000E+01
   6.838  0.4641E-30  0.8000E+01
   6.848  0.1497E-29  0.8000E+01
   6.858  0.4778E-29  0.8000E+01
   6.868  0.1508E-28  0.8000E+01
   6.878  0.4711E-28  0.8000E+01
   6.888  0.1456E-27  0.8000E+01
   6.898  0.4449E-27  0.8000E+01
   6.908  0.1345E-26  0.8000E+01
   6.918  0.4023E-26  0.8000E+01
   6.928  0.1190E-25  0.8000E+01
   6.938  0.3484E-25  0.8000E+01
   6.948  0.1009E-24  0.8000E+01
   6.958  0.2890E-24  0.8000E+01
   6.968  0.8190E-24  0.8000E+01
   6.978  0.2296E-23  0.8000E+01
   6.988  0.6367E-23  0.8000E+01
   6.998  0.1747E-22  0.8000E+01
   7.008  0.4741E-22  0.8000E+01
   7.018  0.1273E-21  0.8000E+01
   7.028  0.3381E-21  0.8000E+01
   7.038  0.8882E-21  0.8000E+01
   7.048  0.2309E-20  0.8000E+01
   7.058  0.5936E-20  0.8000E+01
   7.068  0.1510E-19  0.8000E+01
   7.078  0.3800E-19  0.8000E+01
   7.088  0.9458E-19  0.8000E+01
   7.098  0.2329E-18  0.8000E+01
   7.108  0.5674E-18  0.8000E+01
   7.118  0.1367E-17  0.8000E+01
   7.128  0.3260E-17  0.8000E+01
   7.138  0.7689E-17  0.8000E+01
   7.148  0.1794E-16  0.8000E+01
   7.158  0.4141E-16  0.8000E+01
   7.168  0.9455E-16  0.8000E+01
   7.178  0.2136E-15  0.8000E+01
   7.188  0.4773E-15  0.8000E+01
   7.198  0.1055E-14  0.8000E+01
   7.208  0.2307E-14  0.8000E+01
   7.218  0.4992E-14  0.8000E+01
   7.228  0.1068E-13  0.8000E+01
   7.238  0.2262E-13  0.8000E+01
   7.248  0.4738E-13  0.8000E+01
   7.258  0.9819E-13  0.8000E+01
   7.268  0.2013E-12  0.8000E+01
   7.278  0.4082E-12  0.8000E+01
   7.288  0.8191E-12  0.8000E+01
   7.298  0.1626E-11  0.8000E+01
   7.308  0.3192E-11  0.8000E+01
   7.318  0.6202E-11  0.8000E+01
   7.328  0.1192E-10  0.8000E+01
   7.338  0.2266E-10  0.8000E+01
   7.348  0.4264E-10  0.8000E+01
   7.358  0.7935E-10  0.8000E+01
   7.368  0.1461E-09  0.8000E+01
   7.378  0.2662E-09  0.8000E+01
   7.388  0.4797E-09  0.8000E+01
   7.398  0.8555E-09  0.8000E+01
   7.408  0.1509E-08  0.8000E+01
   7.418  0.2635E-08  0.8000E+01
   7.428  0.4551E-08  0.8000E+01
   7.438  0.7778E-08  0.8000E+01
   7.448  0.1315E-07  0.8000E+01
   7.458  0.2201E-07  0.8000E+01
   7.468  0.3644E-07  0.8000E+01
   7.478  0.5971E-07  0.8000E+01
   7.488  0.9682E-07  0.8000E+01
   7.498  0.1554E-06  0.8000E+01
   7.508  0.2468E-06  0.8000E+01
   7.518  0.3879E-06  0.8000E+01
   7.528  0.6034E-06  0.8000E+01
   7.538  0.9293E-06  0.8000E+01
   7.548  0.1417E-05  0.8000E+01
   7.558  0.2138E-05  0.8000E+01
   7.568  0.3194E-05  0.8000E+01
   7.578  0.4725E-05  0.8000E+01
   7.588  0.6921E-05  0.8000E+01
   7.598  0.1004E-04  0.8000E+01
   7.608  0.1443E-04  0.8000E+01
   7.618  0.2053E-04  0.8000E+01
   7.628  0.2894E-04  0.8000E+01
   7.638  0.4042E-04  0.8000E+01
   7.648  0.5594E-04  0.8000E+01
   7.658  0.7673E-04  0.8000E+01
   7.668  0.1043E-03  0.8000E+01
   7.678  0.1406E-03  0.8000E+01
   7.688  0.1879E-03  0.8000E+01
   7.698  0.2489E-03  0.8000E+01
   7.708  0.3272E-03  0.8000E+01
   7.718  0.4265E-03  0.8000E+01
   7.728  0.5517E-03  0.8000E+01
   7.738  0.7080E-03  0.8000E+01
   7.748  0.9018E-03  0.8000E+01
   7.758  0.1140E-02  0.8000E+01
   7.768  0.1431E-02  0.8000E+01
   7.778  0.1783E-02  0.8000E+01
   7.788  0.2205E-02  0.8000E+01
   7.798  0.2709E-02  0.8000E+01
   7.808  0.3304E-02  0.8000E+01
   7.818  0.4002E-02  0.8000E+01
   7.828  0.4815E-02  0.8000E+01
   7.838  0.5752E-02  0.8000E+01
   7.848  0.6824E-02  0.8000E+01
   7.858  0.8041E-02  0.8000E+01
   7.868  0.9410E-02  0.8001E+01
   7.878  0.1094E-01  0.8001E+01
   7.888  0.1262E-01  0.8001E+01
   7.898  0.1447E-01  0.8001E+01
   7.908  0.1647E-01  0.8001E+01
   7.918  0.1862E-01  0.8001E+01
   7.928  0.2091E-01  0.8001E+01
   7.938  0.2333E-01  0.8002E+01
   7.948  0.2585E-01  0.8002E+01
   7.958  0.2848E-01  0.8002E+01
   7.968  0.3117E-01  0.8003E+01
   7.978  0.3392E-01  0.8003E+01
   7.988  0.3672E-01  0.8003E+01
   7.998  0.3954E-01  0.8004E+01
   8.008  0.4237E-01  0.8004E+01
   8.018  0.4521E-01  0.8005E+01
   8.028  0.4805E-01  0.8005E+01
   8.038  0.5090E-01  0.8006E+01
   8.048  0.5375E-01  0.8006E+01
   8.058  0.5662E-01  0.8007E+01
   8.068  0.5951E-01  0.8007E+01
   8.078  0.6244E-01  0.8008E+01
   8.088  0.6541E-01  0.8009E+01
   8.098  0.6842E-01  0.8009E+01
   8.108  0.7147E-01  0.8010E+01
   8.118  0.7457E-01  0.8011E+01
   8.128  0.7768E-01  0.8011E+01
   8.138  0.8080E-01  0.8012E+01
   8.148  0.8390E-01  0.8013E+01
   8.158  0.8696E-01  0.8014E+01
   8.168  0.8993E-01  0.8015E+01
   8.178  0.9280E-01  0.8016E+01
   8.188  0.9552E-01  0.8017E+01
   8.198  0.9809E-01  0.8018E+01
   8.208  0.1005E+00  0.8019E+01
   8.218  0.1027E+00  0.8020E+01
   8.228  0.1047E+00  0.8021E+01
   8.238  0.1065E+00  0.8022E+01
   8.248  0.1082E+00  0.8023E+01
   8.258  0.1098E+00  0.8024E+01
   8.268  0.1113E+00  0.8025E+01
   8.278  0.1128E+00  0.8026E+01
   8.288  0.1143E+00  0.8027E+01
   8.298  0.1158E+00  0.8029E+01
   8.308  0.1175E+00  0.8030E+01
   8.318  0.1193E+00  0.8031E+01
   8.328  0.1214E+00  0.8032E+01
   8.338  0.1236E+00  0.8033E+01
   8.348  0.1261E+00  0.8035E+01
   8.358  0.1288E+00  0.8036E+01
   8.368  0.1318E+00  0.8037E+01
   8.378  0.1351E+00  0.8039E+01
   8.388  0.1386E+00  0.8040E+01
   8.398  0.1423E+00  0.8041E+01
   8.408  0.1462E+00  0.8043E+01
   8.418  0.1503E+00  0.8044E+01
   8.428  0.1545E+00  0.8046E+01
   8.438  0.1588E+00  0.8048E+01
   8.448  0.1632E+00  0.8049E+01
   8.458  0.1676E+00  0.8051E+01
   8.468  0.1719E+00  0.8053E+01
   8.478  0.1761E+00  0.8054E+01
   8.488  0.1802E+00  0.8056E+01
   8.498  0.1841E+00  0.8058E+01
   8.508  0.1877E+00  0.8060E+01
   8.518  0.1911E+00  0.8062E+01
   8.528  0.1941E+00  0.8064E+01
   8.538  0.1969E+00  0.8066E+01
   8.548  0.1993E+00  0.8068E+01
   8.558  0.2013E+00  0.8070E+01
   8.568  0.2031E+00  0.8072E+01
   8.578  0.2045E+00  0.8074E+01
   8.588  0.2057E+00  0.8076E+01
   8.598  0.2067E+00  0.8078E+01
   8.608  0.2075E+00  0.8080E+01
   8.618  0.2082E+00  0.8082E+01
   8.628  0.2088E+00  0.8084E+01
   8.638  0.2094E+00  0.8086E+01
   8.648  0.2100E+00  0.8088E+01
   8.658  0.2107E+00  0.8090E+01
   8.668  0.2114E+00  0.8093E+01
   8.678  0.2123E+00  0.8095E+01
   8.688  0.2133E+00  0.8097E+01
   8.698  0.2145E+00  0.8099E+01
   8.708  0.2159E+00  0.8101E+01
   8.718  0.2175E+00  0.8103E+01
   8.728  0.2194E+00  0.8105E+01
   8.738  0.2216E+00  0.8108E+01
   8.748  0.2241E+00  0.8110E+01
   8.758  0.2270E+00  0.8112E+01
   8.768  0.2303E+00  0.8114E+01
   8.778  0.2341E+00  0.8117E+01
   8.788  0.2383E+00  0.8119E+01
   8.798  0.2431E+00  0.8122E+01
   8.808  0.2483E+00  0.8124E+01
   8.818  0.2541E+00  0.8127E+01
   8.828  0.2603E+00  0.8129E+01
   8.838  0.2671E+00  0.8132E+01
   8.848  0.2743E+00  0.8135E+01
   8.858  0.2818E+00  0.8138E+01
   8.868  0.2896E+00  0.8140E+01
   8.878  0.2976E+00  0.8143E+01
   8.888  0.3056E+00  0.8146E+01
   8.898  0.3135E+00  0.8150E+01
   8.908  0.3212E+00  0.8153E+01
   8.918  0.3285E+00  0.8156E+01
   8.928  0.3353E+00  0.8159E+01
   8.938  0.3415E+00  0.8163E+01
   8.948  0.3469E+00  0.8166E+01
   8.958  0.3514E+00  0.8170E+01
   8.968  0.3550E+00  0.8173E+01
   8.978  0.3575E+00  0.8177E+01
   8.988  0.3590E+00  0.8181E+01
   8.998  0.3595E+00  0.8184E+01
   9.008  0.3589E+00  0.8188E+01
   9.018  0.3575E+00  0.8191E+01
   9.028  0.3551E+00  0.8195E+01
   9.038  0.3521E+00  0.8198E+01
   9.048  0.3486E+00  0.8202E+01
   9.058  0.3447E+00  0.8205E+01
   9.068  0.3407E+00  0.8209E+01
   9.078  0.3368E+00  0.8212E+01
   9.088  0.3332E+00  0.8215E+01
   9.098  0.3301E+00  0.8219E+01
   9.108  0.3279E+00  0.8222E+01
   9.118  0.3267E+00  0.8225E+01
   9.128  0.3266E+00  0.8229E+01
   9.138  0.3279E+00  0.8232E+01
   9.148  0.3307E+00  0.8235E+01
   9.158  0.3352E+00  0.8238E+01
   9.168  0.3413E+00  0.8242E+01
   9.178  0.3491E+00  0.8245E+01
   9.188  0.3587E+00  0.8249E+01
   9.198  0.3700E+00  0.8253E+01
   9.208  0.3829E+00  0.8256E+01
   9.218  0.3974E+00  0.8260E+01
   9.228  0.4133E+00  0.8265E+01
   9.238  0.4305E+00  0.8269E+01
   9.248  0.4489E+00  0.8273E+01
   9.258  0.4682E+00  0.8278E+01
   9.268  0.4883E+00  0.8283E+01
   9.278  0.5089E+00  0.8288E+01
   9.288  0.5299E+00  0.8293E+01
   9.298  0.5509E+00  0.8299E+01
   9.308  0.5718E+00  0.8305E+01
   9.318  0.5922E+00  0.8310E+01
   9.328  0.6120E+00  0.8317E+01
   9.338  0.6309E+00  0.8323E+01
   9.348  0.6487E+00  0.8329E+01
   9.358  0.6652E+00  0.8336E+01
   9.368  0.6801E+00  0.8343E+01
   9.378  0.6934E+00  0.8350E+01
   9.388  0.7050E+00  0.8357E+01
   9.398  0.7147E+00  0.8364E+01
   9.408  0.7225E+00  0.8371E+01
   9.418  0.7284E+00  0.8378E+01
   9.428  0.7326E+00  0.8386E+01
   9.438  0.7351E+00  0.8393E+01
   9.448  0.7360E+00  0.8401E+01
   9.458  0.7356E+00  0.8408E+01
   9.468  0.7341E+00  0.8415E+01
   9.478  0.7317E+00  0.8423E+01
   9.488  0.7287E+00  0.8430E+01
   9.498  0.7254E+00  0.8437E+01
   9.508  0.7219E+00  0.8444E+01
   9.518  0.7187E+00  0.8451E+01
   9.528  0.7158E+00  0.8459E+01
   9.538  0.7135E+00  0.8466E+01
   9.548  0.7119E+00  0.8473E+01
   9.558  0.7113E+00  0.8480E+01
   9.568  0.7118E+00  0.8487E+01
   9.578  0.7135E+00  0.8494E+01
   9.588  0.7164E+00  0.8501E+01
   9.598  0.7208E+00  0.8509E+01
   9.608  0.7267E+00  0.8516E+01
   9.618  0.7343E+00  0.8523E+01
   9.628  0.7436E+00  0.8531E+01
   9.638  0.7547E+00  0.8538E+01
   9.648  0.7679E+00  0.8546E+01
   9.658  0.7831E+00  0.8554E+01
   9.668  0.8004E+00  0.8562E+01
   9.678  0.8199E+00  0.8570E+01
   9.688  0.8416E+00  0.8578E+01
   9.698  0.8654E+00  0.8587E+01
   9.708  0.8912E+00  0.8596E+01
   9.718  0.9188E+00  0.8605E+01
   9.728  0.9479E+00  0.8615E+01
   9.738  0.9782E+00  0.8624E+01
   9.748  0.1009E+01  0.8634E+01
   9.758  0.1041E+01  0.8645E+01
   9.768  0.1072E+01  0.8656E+01
   9.778  0.1102E+01  0.8667E+01
   9.788  0.1132E+01  0.8678E+01
   9.798  0.1159E+01  0.8690E+01
   9.808  0.1185E+01  0.8701E+01
   9.818  0.1209E+01  0.8713E+01
   9.828  0.1229E+01  0.8726E+01
   9.838  0.1247E+01  0.8738E+01
   9.848  0.1263E+01  0.8751E+01
   9.858  0.1275E+01  0.8764E+01
   9.868  0.1284E+01  0.8776E+01
   9.878  0.1291E+01  0.8789E+01
   9.888  0.1296E+01  0.8802E+01
   9.898  0.1299E+01  0.8815E+01
   9.908  0.1299E+01  0.8828E+01
   9.918  0.1299E+01  0.8841E+01
   9.928  0.1297E+01  0.8854E+01
   9.938  0.1295E+01  0.8867E+01
   9.948  0.1293E+01  0.8880E+01
   9.958  0.1291E+01  0.8893E+01
   9.968  0.1289E+01  0.8906E+01
   9.978  0.1288E+01  0.8919E+01
   9.988  0.1288E+01  0.8932E+01
   9.998  0.1290E+01  0.8945E+01
  10.008  0.1292E+01  0.8958E+01
  10.018  0.1297E+01  0.8970E+01
  10.028  0.1303E+01  0.8984E+01
  10.038  0.1310E+01  0.8997E+01
  10.048  0.1320E+01  0.9010E+01
  10.058  0.1331E+01  0.9023E+01
  10.068  0.1344E+01  0.9037E+01
  10.078  0.1358E+01  0.9050E+01
  10.088  0.1373E+01  0.9064E+01
  10.098  0.1388E+01  0.9078E+01
  10.108  0.1405E+01  0.9092E+01
  10.118  0.1422E+01  0.9106E+01
  10.128  0.1438E+01  0.9120E+01
  10.138  0.1454E+01  0.9135E+01
  10.148  0.1470E+01  0.9150E+01
  10.158  0.1484E+01  0.9164E+01
  10.168  0.1498E+01  0.9179E+01
  10.178  0.1510E+01  0.9195E+01
  10.188  0.1521E+01  0.9210E+01
  10.198  0.1531E+01  0.9225E+01
  10.208  0.1539E+01  0.9240E+01
  10.218  0.1546E+01  0.9256E+01
  10.228  0.1552E+01  0.9271E+01
  10.238  0.1557E+01  0.9287E+01
  10.248  0.1562E+01  0.9303E+01
  10.258  0.1566E+01  0.9318E+01
  10.268  0.1569E+01  0.9334E+01
  10.278  0.1573E+01  0.9350E+01
  10.288  0.1576E+01  0.9365E+01
  10.298  0.1579E+01  0.9381E+01
  10.308  0.1582E+01  0.9397E+01
  10.318  0.1585E+01  0.9413E+01
  10.328  0.1587E+01  0.9429E+01
  10.338  0.1589E+01  0.9445E+01
  10.348  0.1591E+01  0.9461E+01
  10.358  0.1592E+01  0.9477E+01
  10.368  0.1591E+01  0.9492E+01
  10.378  0.1590E+01  0.9508E+01
  10.388  0.1588E+01  0.9524E+01
  10.398  0.1584E+01  0.9540E+01
  10.408  0.1578E+01  0.9556E+01
  10.418  0.1571E+01  0.9572E+01
  10.428  0.1563E+01  0.9587E+01
  10.438  0.1552E+01  0.9603E+01
  10.448  0.1540E+01  0.9618E+01
  10.458  0.1527E+01  0.9633E+01
  10.468  0.1513E+01  0.9648E+01
  10.478  0.1497E+01  0.9663E+01
  10.488  0.1481E+01  0.9678E+01
  10.498  0.1464E+01  0.9693E+01
  10.508  0.1447E+01  0.9707E+01
  10.518  0.1430E+01  0.9722E+01
  10.528  0.1413E+01  0.9736E+01
  10.538  0.1397E+01  0.9750E+01
  10.548  0.1382E+01  0.9764E+01
  10.558  0.1368E+01  0.9777E+01
  10.568  0.1355E+01  0.9791E+01
  10.578  0.1343E+01  0.9804E+01
  10.588  0.1334E+01  0.9818E+01
  10.598  0.1325E+01  0.9831E+01
  10.608  0.1319E+01  0.9844E+01
  10.618  0.1314E+01  0.9857E+01
  10.628  0.1310E+01  0.9870E+01
  10.638  0.1307E+01  0.9883E+01
  10.648  0.1305E+01  0.9896E+01
  10.658  0.1304E+01  0.9909E+01
  10.668  0.1303E+01  0.9922E+01
  10.678  0.1302E+01  0.9935E+01
  10.688  0.1301E+01  0.9948E+01
  10.698  0.1299E+01  0.9961E+01
  10.708  0.1295E+01  0.9974E+01
  10.718  0.1290E+01  0.9987E+01
  10.728  0.1283E+01  0.1000E+02
  10.738  0.1274E+01  0.1001E+02
  10.748  0.1263E+01  0.1003E+02
  10.758  0.1249E+01  0.1004E+02
  10.768  0.1232E+01  0.1005E+02
  10.778  0.1214E+01  0.1006E+02
  10.788  0.1192E+01  0.1007E+02
  10.798  0.1168E+01  0.1009E+02
  10.808  0.1143E+01  0.1010E+02
  10.818  0.1115E+01  0.1011E+02
  10.828  0.1085E+01  0.1012E+02
  10.838  0.1055E+01  0.1013E+02
  10.848  0.1023E+01  0.1014E+02
  10.858  0.9912E+00  0.1015E+02
  10.868  0.9592E+00  0.1016E+02
  10.878  0.9276E+00  0.1017E+02
  10.888  0.8968E+00  0.1018E+02
  10.898  0.8674E+00  0.1019E+02
  10.908  0.8396E+00  0.1020E+02
  10.918  0.8139E+00  0.1020E+02
  10.928  0.7905E+00  0.1021E+02
  10.938  0.7699E+00  0.1022E+02
  10.948  0.7521E+00  0.1023E+02
  10.958  0.7375E+00  0.1023E+02
  10.968  0.7260E+00  0.1024E+02
  10.978  0.7177E+00  0.1025E+02
  10.988  0.7126E+00  0.1026E+02
  10.998  0.7107E+00  0.1026E+02
  11.008  0.7117E+00  0.1027E+02
  11.018  0.7156E+00  0.1028E+02
  11.028  0.7220E+00  0.1028E+02
  11.038  0.7306E+00  0.1029E+02
  11.048  0.7411E+00  0.1030E+02
  11.058  0.7531E+00  0.1031E+02
  11.068  0.7660E+00  0.1031E+02
  11.078  0.7795E+00  0.1032E+02
  11.088  0.7931E+00  0.1033E+02
  11.098  0.8061E+00  0.1034E+02
  11.108  0.8182E+00  0.1035E+02
  11.118  0.8287E+00  0.1035E+02
  11.128  0.8373E+00  0.1036E+02
  11.138  0.8436E+00  0.1037E+02
  11.148  0.8472E+00  0.1038E+02
  11.158  0.8479E+00  0.1039E+02
  11.168  0.8456E+00  0.1040E+02
  11.178  0.8404E+00  0.1040E+02
  11.188  0.8322E+00  0.1041E+02
  11.198  0.8213E+00  0.1042E+02
  11.208  0.8082E+00  0.1043E+02
  11.218  0.7932E+00  0.1044E+02
  11.228  0.7770E+00  0.1045E+02
  11.238  0.7600E+00  0.1045E+02
  11.248  0.7429E+00  0.1046E+02
  11.258  0.7265E+00  0.1047E+02
  11.268  0.7114E+00  0.1047E+02
  11.278  0.6982E+00  0.1048E+02
  11.288  0.6875E+00  0.1049E+02
  11.298  0.6798E+00  0.1050E+02
  11.308  0.6755E+00  0.1050E+02
  11.318  0.6749E+00  0.1051E+02
  11.328  0.6782E+00  0.1052E+02
  11.338  0.6855E+00  0.1052E+02
  11.348  0.6968E+00  0.1053E+02
  11.358  0.7120E+00  0.1054E+02
  11.368  0.7309E+00  0.1054E+02
  11.378  0.7531E+00  0.1055E+02
  11.388  0.7784E+00  0.1056E+02
  11.398  0.8064E+00  0.1057E+02
  11.408  0.8366E+00  0.1058E+02
  11.418  0.8687E+00  0.1058E+02
  11.428  0.9022E+00  0.1059E+02
  11.438  0.9368E+00  0.1060E+02
  11.448  0.9721E+00  0.1061E+02
  11.458  0.1008E+01  0.1062E+02
  11.468  0.1044E+01  0.1063E+02
  11.478  0.1079E+01  0.1064E+02
  11.488  0.1114E+01  0.1065E+02
  11.498  0.1149E+01  0.1067E+02
  11.508  0.1183E+01  0.1068E+02
  11.518  0.1216E+01  0.1069E+02
  11.528  0.1249E+01  0.1070E+02
  11.538  0.1280E+01  0.1072E+02
  11.548  0.1310E+01  0.1073E+02
  11.558  0.1339E+01  0.1074E+02
  11.568  0.1366E+01  0.1076E+02
  11.578  0.1392E+01  0.1077E+02
  11.588  0.1417E+01  0.1078E+02
  11.598  0.1439E+01  0.1080E+02
  11.608  0.1460E+01  0.1081E+02
  11.618  0.1478E+01  0.1083E+02
  11.628  0.1494E+01  0.1084E+02
  11.638  0.1509E+01  0.1086E+02
  11.648  0.1521E+01  0.1087E+02
  11.658  0.1531E+01  0.1089E+02
  11.668  0.1539E+01  0.1090E+02
  11.678  0.1544E+01  0.1092E+02
  11.688  0.1548E+01  0.1093E+02
  11.698  0.1550E+01  0.1095E+02
  11.708  0.1550E+01  0.1097E+02
  11.718  0.1549E+01  0.1098E+02
  11.728  0.1546E+01  0.1100E+02
  11.738  0.1542E+01  0.1101E+02
  11.748  0.1537E+01  0.1103E+02
  11.758  0.1532E+01  0.1104E+02
  11.768  0.1526E+01  0.1106E+02
  11.778  0.1520E+01  0.1107E+02
  11.788  0.1514E+01  0.1109E+02
  11.798  0.1508E+01  0.1110E+02
  11.808  0.1503E+01  0.1112E+02
  11.818  0.1499E+01  0.1113E+02
  11.828  0.1495E+01  0.1115E+02
  11.838  0.1493E+01  0.1116E+02
  11.848  0.1491E+01  0.1118E+02
  11.858  0.1491E+01  0.1119E+02
  11.868  0.1492E+01  0.1121E+02
  11.878  0.1494E+01  0.1122E+02
  11.888  0.1498E+01  0.1124E+02
  11.898  0.1502E+01  0.1125E+02
  11.908  0.1507E+01  0.1127E+02
  11.918  0.1513E+01  0.1128E+02
  11.928  0.1519E+01  0.1130E+02
  11.938  0.1525E+01  0.1131E+02
  11.948  0.1532E+01  0.1133E+02
  11.958  0.1538E+01  0.1134E+02
  11.968  0.1545E+01  0.1136E+02
  11.978  0.1551E+01  0.1137E+02
  11.988  0.1556E+01  0.1139E+02
  11.998  0.1562E+01  0.1141E+02
  12.008  0.1566E+01  0.1142E+02
  12.018  0.1570E+01  0.1144E+02
  12.028  0.1574E+01  0.1145E+02
  12.038  0.1577E+01  0.1147E+02
  12.048  0.1579E+01  0.1148E+02
  12.058  0.1580E+01  0.1150E+02
  12.068  0.1580E+01  0.1152E+02
  12.078  0.1578E+01  0.1153E+02
  12.088  0.1575E+01  0.1155E+02
  12.098  0.1570E+01  0.1156E+02
  12.108  0.1562E+01  0.1158E+02
  12.118  0.1553E+01  0.1159E+02
  12.128  0.1541E+01  0.1161E+02
  12.138  0.1526E+01  0.1163E+02
  12.148  0.1508E+01  0.1164E+02
  12.158  0.1488E+01  0.1166E+02
  12.168  0.1465E+01  0.1167E+02
  12.178  0.1440E+01  0.1168E+02
  12.188  0.1412E+01  0.1170E+02
  12.198  0.1383E+01  0.1171E+02
  12.208  0.1353E+01  0.1173E+02
  12.218  0.1322E+01  0.1174E+02
  12.228  0.1291E+01  0.1175E+02
  12.238  0.1260E+01  0.1176E+02
  12.248  0.1231E+01  0.1178E+02
  12.258  0.1202E+01  0.1179E+02
  12.268  0.1176E+01  0.1180E+02
  12.278  0.1153E+01  0.1181E+02
  12.288  0.1133E+01  0.1182E+02
  12.298  0.1115E+01  0.1183E+02
  12.308  0.1102E+01  0.1185E+02
  12.318  0.1092E+01  0.1186E+02
  12.328  0.1086E+01  0.1187E+02
  12.338  0.1084E+01  0.1188E+02
  12.348  0.1085E+01  0.1189E+02
  12.358  0.1090E+01  0.1190E+02
  12.368  0.1097E+01  0.1191E+02
  12.378  0.1107E+01  0.1192E+02
  12.388  0.1119E+01  0.1193E+02
  12.398  0.1132E+01  0.1194E+02
  12.408  0.1146E+01  0.1196E+02
  12.418  0.1161E+01  0.1197E+02
  12.428  0.1175E+01  0.1198E+02
  12.438  0.1189E+01  0.1199E+02
  12.448  0.1202E+01  0.1200E+02
  12.458  0.1213E+01  0.1202E+02
  12.468  0.1223E+01  0.1203E+02
  12.478  0.1231E+01  0.1204E+02
  12.488  0.1238E+01  0.1205E+02
  12.498  0.1243E+01  0.1206E+02
  12.508  0.1246E+01  0.1208E+02
  12.518  0.1249E+01  0.1209E+02
  12.528  0.1250E+01  0.1210E+02
  12.538  0.1250E+01  0.1211E+02
  12.548  0.1250E+01  0.1213E+02
  12.558  0.1250E+01  0.1214E+02
  12.568  0.1249E+01  0.1215E+02
  12.578  0.1249E+01  0.1216E+02
  12.588  0.1248E+01  0.1218E+02
  12.598  0.1248E+01  0.1219E+02
  12.608  0.1248E+01  0.1220E+02
  12.618  0.1248E+01  0.1221E+02
  12.628  0.1249E+01  0.1223E+02
  12.638  0.1249E+01  0.1224E+02
  12.648  0.1251E+01  0.1225E+02
  12.658  0.1252E+01  0.1226E+02
  12.668  0.1254E+01  0.1228E+02
  12.678  0.1258E+01  0.1229E+02
  12.688  0.1262E+01  0.1230E+02
  12.698  0.1268E+01  0.1232E+02
  12.708  0.1275E+01  0.1233E+02
  12.718  0.1285E+01  0.1234E+02
  12.728  0.1297E+01  0.1235E+02
  12.738  0.1311E+01  0.1237E+02
  12.748  0.1329E+01  0.1238E+02
  12.758  0.1350E+01  0.1239E+02
  12.768  0.1374E+01  0.1241E+02
  12.778  0.1401E+01  0.1242E+02
  12.788  0.1430E+01  0.1244E+02
  12.798  0.1462E+01  0.1245E+02
  12.808  0.1496E+01  0.1247E+02
  12.818  0.1530E+01  0.1248E+02
  12.828  0.1565E+01  0.1250E+02
  12.838  0.1599E+01  0.1251E+02
  12.848  0.1632E+01  0.1253E+02
  12.858  0.1662E+01  0.1255E+02
  12.868  0.1690E+01  0.1256E+02
  12.878  0.1713E+01  0.1258E+02
  12.888  0.1733E+01  0.1260E+02
  12.898  0.1748E+01  0.1261E+02
  12.908  0.1757E+01  0.1263E+02
  12.918  0.1762E+01  0.1265E+02
  12.928  0.1762E+01  0.1267E+02
  12.938  0.1757E+01  0.1268E+02
  12.948  0.1747E+01  0.1270E+02
  12.958  0.1734E+01  0.1272E+02
  12.968  0.1717E+01  0.1274E+02
  12.978  0.1698E+01  0.1275E+02
  12.988  0.1676E+01  0.1277E+02
  12.998  0.1653E+01  0.1279E+02
  13.008  0.1628E+01  0.1280E+02
  13.018  0.1603E+01  0.1282E+02
  13.028  0.1578E+01  0.1283E+02
  13.038  0.1552E+01  0.1285E+02
  13.048  0.1527E+01  0.1287E+02
  13.058  0.1501E+01  0.1288E+02
  13.068  0.1476E+01  0.1290E+02
  13.078  0.1450E+01  0.1291E+02
  13.088  0.1425E+01  0.1292E+02
  13.098  0.1399E+01  0.1294E+02
  13.108  0.1372E+01  0.1295E+02
  13.118  0.1345E+01  0.1297E+02
  13.128  0.1317E+01  0.1298E+02
  13.138  0.1288E+01  0.1299E+02
  13.148  0.1258E+01  0.1300E+02
  13.158  0.1228E+01  0.1302E+02
  13.168  0.1198E+01  0.1303E+02
  13.178  0.1168E+01  0.1304E+02
  13.188  0.1139E+01  0.1305E+02
  13.198  0.1111E+01  0.1306E+02
  13.208  0.1084E+01  0.1307E+02
  13.218  0.1060E+01  0.1308E+02
  13.228  0.1038E+01  0.1309E+02
  13.238  0.1019E+01  0.1310E+02
  13.248  0.1003E+01  0.1311E+02
  13.258  0.9905E+00  0.1312E+02
  13.268  0.9818E+00  0.1313E+02
  13.278  0.9768E+00  0.1314E+02
  13.288  0.9754E+00  0.1315E+02
  13.298  0.9775E+00  0.1316E+02
  13.308  0.9828E+00  0.1317E+02
  13.318  0.9911E+00  0.1318E+02
  13.328  0.1002E+01  0.1319E+02
  13.338  0.1015E+01  0.1320E+02
  13.348  0.1030E+01  0.1321E+02
  13.358  0.1046E+01  0.1322E+02
  13.368  0.1063E+01  0.1323E+02
  13.378  0.1081E+01  0.1325E+02
  13.388  0.1099E+01  0.1326E+02
  13.398  0.1117E+01  0.1327E+02
  13.408  0.1134E+01  0.1328E+02
  13.418  0.1150E+01  0.1329E+02
  13.428  0.1165E+01  0.1330E+02
  13.438  0.1178E+01  0.1331E+02
  13.448  0.1190E+01  0.1333E+02
  13.458  0.1201E+01  0.1334E+02
  13.468  0.1210E+01  0.1335E+02
  13.478  0.1217E+01  0.1336E+02
  13.488  0.1222E+01  0.1337E+02
  13.498  0.1226E+01  0.1339E+02
  13.508  0.1228E+01  0.1340E+02
  13.518  0.1229E+01  0.1341E+02
  13.528  0.1228E+01  0.1342E+02
  13.538  0.1227E+01  0.1344E+02
  13.548  0.1224E+01  0.1345E+02
  13.558  0.1220E+01  0.1346E+02
  13.568  0.1216E+01  0.1347E+02
  13.578  0.1211E+01  0.1348E+02
  13.588  0.1206E+01  0.1350E+02
  13.598  0.1199E+01  0.1351E+02
  13.608  0.1193E+01  0.1352E+02
  13.618  0.1185E+01  0.1353E+02
  13.628  0.1177E+01  0.1354E+02
  13.638  0.1167E+01  0.1356E+02
  13.648  0.1157E+01  0.1357E+02
  13.658  0.1146E+01  0.1358E+02
  13.668  0.1133E+01  0.1359E+02
  13.678  0.1119E+01  0.1360E+02
  13.688  0.1104E+01  0.1361E+02
  13.698  0.1088E+01  0.1362E+02
  13.708  0.1071E+01  0.1363E+02
  13.718  0.1053E+01  0.1364E+02
  13.728  0.1034E+01  0.1365E+02
  13.738  0.1015E+01  0.1366E+02
  13.748  0.9963E+00  0.1367E+02
  13.758  0.9776E+00  0.1368E+02
  13.768  0.9595E+00  0.1369E+02
  13.778  0.9424E+00  0.1370E+02
  13.788  0.9266E+00  0.1371E+02
  13.798  0.9123E+00  0.1372E+02
  13.808  0.8997E+00  0.1373E+02
  13.818  0.8891E+00  0.1374E+02
  13.828  0.8806E+00  0.1375E+02
  13.838  0.8742E+00  0.1376E+02
  13.848  0.8700E+00  0.1377E+02
  13.858  0.8679E+00  0.1377E+02
  13.868  0.8679E+00  0.1378E+02
  13.878  0.8699E+00  0.1379E+02
  13.888  0.8738E+00  0.1380E+02
  13.898  0.8794E+00  0.1381E+02
  13.908  0.8865E+00  0.1382E+02
  13.918  0.8951E+00  0.1383E+02
  13.928  0.9048E+00  0.1384E+02
  13.938  0.9156E+00  0.1385E+02
  13.948  0.9272E+00  0.1385E+02
  13.958  0.9395E+00  0.1386E+02
  13.968  0.9523E+00  0.1387E+02
  13.978  0.9656E+00  0.1388E+02
  13.988  0.9790E+00  0.1389E+02
  13.998  0.9926E+00  0.1390E+02
  14.008  0.1006E+01  0.1391E+02
  14.018  0.1020E+01  0.1392E+02
  14.028  0.1033E+01  0.1393E+02
  14.038  0.1045E+01  0.1394E+02
  14.048  0.1058E+01  0.1395E+02
  14.058  0.1069E+01  0.1397E+02
  14.068  0.1080E+01  0.1398E+02
  14.078  0.1090E+01  0.1399E+02
  14.088  0.1099E+01  0.1400E+02
  14.098  0.1106E+01  0.1401E+02
  14.108  0.1113E+01  0.1402E+02
  14.118  0.1118E+01  0.1403E+02
  14.128  0.1122E+01  0.1404E+02
  14.138  0.1124E+01  0.1405E+02
  14.148  0.1124E+01  0.1407E+02
  14.158  0.1123E+01  0.1408E+02
  14.168  0.1119E+01  0.1409E+02
  14.178  0.1114E+01  0.1410E+02
  14.188  0.1107E+01  0.1411E+02
  14.198  0.1098E+01  0.1412E+02
  14.208  0.1087E+01  0.1413E+02
  14.218  0.1074E+01  0.1414E+02
  14.228  0.1059E+01  0.1415E+02
  14.238  0.1043E+01  0.1416E+02
  14.248  0.1025E+01  0.1417E+02
  14.258  0.1006E+01  0.1418E+02
  14.268  0.9863E+00  0.1419E+02
  14.278  0.9652E+00  0.1420E+02
  14.288  0.9435E+00  0.1421E+02
  14.298  0.9213E+00  0.1422E+02
  14.308  0.8991E+00  0.1423E+02
  14.318  0.8770E+00  0.1424E+02
  14.328  0.8553E+00  0.1425E+02
  14.338  0.8344E+00  0.1426E+02
  14.348  0.8143E+00  0.1426E+02
  14.358  0.7955E+00  0.1427E+02
  14.368  0.7782E+00  0.1428E+02
  14.378  0.7624E+00  0.1429E+02
  14.388  0.7485E+00  0.1430E+02
  14.398  0.7367E+00  0.1430E+02
  14.408  0.7270E+00  0.1431E+02
  14.418  0.7196E+00  0.1432E+02
  14.428  0.7146E+00  0.1432E+02
  14.438  0.7121E+00  0.1433E+02
  14.448  0.7122E+00  0.1434E+02
  14.458  0.7150E+00  0.1435E+02
  14.468  0.7204E+00  0.1435E+02
  14.478  0.7286E+00  0.1436E+02
  14.488  0.7393E+00  0.1437E+02
  14.498  0.7527E+00  0.1438E+02
  14.508  0.7686E+00  0.1438E+02
  14.518  0.7868E+00  0.1439E+02
  14.528  0.8071E+00  0.1440E+02
  14.538  0.8293E+00  0.1441E+02
  14.548  0.8532E+00  0.1442E+02
  14.558  0.8784E+00  0.1442E+02
  14.568  0.9046E+00  0.1443E+02
  14.578  0.9315E+00  0.1444E+02
  14.588  0.9587E+00  0.1445E+02
  14.598  0.9858E+00  0.1446E+02
  14.608  0.1013E+01  0.1447E+02
  14.618  0.1039E+01  0.1448E+02
  14.628  0.1064E+01  0.1449E+02
  14.638  0.1088E+01  0.1450E+02
  14.648  0.1111E+01  0.1452E+02
  14.658  0.1133E+01  0.1453E+02
  14.668  0.1153E+01  0.1454E+02
  14.678  0.1171E+01  0.1455E+02
  14.688  0.1188E+01  0.1456E+02
  14.698  0.1203E+01  0.1457E+02
  14.708  0.1217E+01  0.1459E+02
  14.718  0.1229E+01  0.1460E+02
  14.728  0.1240E+01  0.1461E+02
  14.738  0.1249E+01  0.1462E+02
  14.748  0.1257E+01  0.1464E+02
  14.758  0.1263E+01  0.1465E+02
  14.768  0.1268E+01  0.1466E+02
  14.778  0.1271E+01  0.1467E+02
  14.788  0.1272E+01  0.1469E+02
  14.798  0.1272E+01  0.1470E+02
  14.808  0.1271E+01  0.1471E+02
  14.818  0.1267E+01  0.1472E+02
  14.828  0.1263E+01  0.1474E+02
  14.838  0.1257E+01  0.1475E+02
  14.848  0.1249E+01  0.1476E+02
  14.858  0.1241E+01  0.1477E+02
  14.868  0.1231E+01  0.1479E+02
  14.878  0.1221E+01  0.1480E+02
  14.888  0.1211E+01  0.1481E+02
  14.898  0.1200E+01  0.1482E+02
  14.908  0.1190E+01  0.1484E+02
  14.918  0.1180E+01  0.1485E+02
  14.928  0.1171E+01  0.1486E+02
  14.938  0.1163E+01  0.1487E+02
  14.948  0.1156E+01  0.1488E+02
  14.958  0.1151E+01  0.1489E+02
  14.968  0.1147E+01  0.1491E+02
  14.978  0.1145E+01  0.1492E+02
  14.988  0.1144E+01  0.1493E+02
  14.998  0.1146E+01  0.1494E+02
  15.008  0.1149E+01  0.1495E+02
  15.018  0.1153E+01  0.1496E+02
  15.028  0.1159E+01  0.1497E+02
  15.038  0.1166E+01  0.1499E+02
  15.048  0.1174E+01  0.1500E+02
  15.058  0.1182E+01  0.1501E+02
  15.068  0.1191E+01  0.1502E+02
  15.078  0.1200E+01  0.1503E+02
  15.088  0.1209E+01  0.1505E+02
  15.098  0.1218E+01  0.1506E+02
  15.108  0.1226E+01  0.1507E+02
  15.118  0.1234E+01  0.1508E+02
  15.128  0.1242E+01  0.1509E+02
  15.138  0.1250E+01  0.1511E+02
  15.148  0.1257E+01  0.1512E+02
  15.158  0.1264E+01  0.1513E+02
  15.168  0.1272E+01  0.1514E+02
  15.178  0.1279E+01  0.1516E+02
  15.188  0.1288E+01  0.1517E+02
  15.198  0.1297E+01  0.1518E+02
  15.208  0.1306E+01  0.1520E+02
  15.218  0.1317E+01  0.1521E+02
  15.228  0.1328E+01  0.1522E+02
  15.238  0.1341E+01  0.1524E+02
  15.248  0.1353E+01  0.1525E+02
  15.258  0.1366E+01  0.1526E+02
  15.268  0.1379E+01  0.1528E+02
  15.278  0.1391E+01  0.1529E+02
  15.288  0.1402E+01  0.1531E+02
  15.298  0.1412E+01  0.1532E+02
  15.308  0.1420E+01  0.1533E+02
  15.318  0.1425E+01  0.1535E+02
  15.328  0.1428E+01  0.1536E+02
  15.338  0.1427E+01  0.1538E+02
  15.348  0.1423E+01  0.1539E+02
  15.358  0.1415E+01  0.1540E+02
  15.368  0.1404E+01  0.1542E+02
  15.378  0.1389E+01  0.1543E+02
  15.388  0.1371E+01  0.1545E+02
  15.398  0.1349E+01  0.1546E+02
  15.408  0.1325E+01  0.1547E+02
  15.418  0.1298E+01  0.1549E+02
  15.428  0.1269E+01  0.1550E+02
  15.438  0.1238E+01  0.1551E+02
  15.448  0.1207E+01  0.1552E+02
  15.458  0.1174E+01  0.1554E+02
  15.468  0.1142E+01  0.1555E+02
  15.478  0.1109E+01  0.1556E+02
  15.488  0.1077E+01  0.1557E+02
  15.498  0.1046E+01  0.1558E+02
  15.508  0.1016E+01  0.1559E+02
  15.518  0.9867E+00  0.1560E+02
  15.528  0.9591E+00  0.1561E+02
  15.538  0.9331E+00  0.1562E+02
  15.548  0.9086E+00  0.1563E+02
  15.558  0.8859E+00  0.1564E+02
  15.568  0.8648E+00  0.1564E+02
  15.578  0.8456E+00  0.1565E+02
  15.588  0.8281E+00  0.1566E+02
  15.598  0.8124E+00  0.1567E+02
  15.608  0.7985E+00  0.1568E+02
  15.618  0.7864E+00  0.1569E+02
  15.628  0.7762E+00  0.1569E+02
  15.638  0.7679E+00  0.1570E+02
  15.648  0.7614E+00  0.1571E+02
  15.658  0.7567E+00  0.1572E+02
  15.668  0.7539E+00  0.1572E+02
  15.678  0.7529E+00  0.1573E+02
  15.688  0.7537E+00  0.1574E+02
  15.698  0.7560E+00  0.1575E+02
  15.708  0.7599E+00  0.1575E+02
  15.718  0.7651E+00  0.1576E+02
  15.728  0.7716E+00  0.1577E+02
  15.738  0.7789E+00  0.1578E+02
  15.748  0.7870E+00  0.1578E+02
  15.758  0.7956E+00  0.1579E+02
  15.768  0.8043E+00  0.1580E+02
  15.778  0.8130E+00  0.1581E+02
  15.788  0.8212E+00  0.1582E+02
  15.798  0.8287E+00  0.1583E+02
  15.808  0.8353E+00  0.1583E+02
  15.818  0.8406E+00  0.1584E+02
  15.828  0.8444E+00  0.1585E+02
  15.838  0.8466E+00  0.1586E+02
  15.848  0.8470E+00  0.1587E+02
  15.858  0.8454E+00  0.1588E+02
  15.868  0.8419E+00  0.1588E+02
  15.878  0.8366E+00  0.1589E+02
  15.888  0.8294E+00  0.1590E+02
  15.898  0.8205E+00  0.1591E+02
  15.908  0.8102E+00  0.1592E+02
  15.918  0.7987E+00  0.1593E+02
  15.928  0.7863E+00  0.1593E+02
  15.938  0.7733E+00  0.1594E+02
  15.948  0.7601E+00  0.1595E+02
  15.958  0.7470E+00  0.1596E+02
  15.968  0.7341E+00  0.1596E+02
  15.978  0.7220E+00  0.1597E+02
  15.988  0.7106E+00  0.1598E+02
  15.998  0.7003E+00  0.1598E+02
  16.008  0.6911E+00  0.1599E+02
  16.018  0.6831E+00  0.1600E+02
  16.028  0.6763E+00  0.1600E+02
  16.038  0.6706E+00  0.1601E+02
  16.048  0.6660E+00  0.1602E+02
  16.058  0.6624E+00  0.1602E+02
  16.068  0.6596E+00  0.1603E+02
  16.078  0.6575E+00  0.1604E+02
  16.088  0.6560E+00  0.1604E+02
  16.098  0.6550E+00  0.1605E+02
  16.108  0.6544E+00  0.1606E+02
  16.118  0.6540E+00  0.1606E+02
  16.128  0.6538E+00  0.1607E+02
  16.138  0.6537E+00  0.1608E+02
  16.148  0.6537E+00  0.1608E+02
  16.158  0.6537E+00  0.1609E+02
  16.168  0.6537E+00  0.1610E+02
  16.178  0.6537E+00  0.1610E+02
  16.188  0.6537E+00  0.1611E+02
  16.198  0.6535E+00  0.1612E+02
  16.208  0.6531E+00  0.1612E+02
  16.218  0.6526E+00  0.1613E+02
  16.228  0.6519E+00  0.1614E+02
  16.238  0.6509E+00  0.1614E+02
  16.248  0.6497E+00  0.1615E+02
  16.258  0.6482E+00  0.1616E+02
  16.268  0.6466E+00  0.1616E+02
  16.278  0.6448E+00  0.1617E+02
  16.288  0.6430E+00  0.1617E+02
  16.298  0.6413E+00  0.1618E+02
  16.308  0.6398E+00  0.1619E+02
  16.318  0.6388E+00  0.1619E+02
  16.328  0.6383E+00  0.1620E+02
  16.338  0.6385E+00  0.1621E+02
  16.348  0.6396E+00  0.1621E+02
  16.358  0.6419E+00  0.1622E+02
  16.368  0.6452E+00  0.1623E+02
  16.378  0.6499E+00  0.1623E+02
  16.388  0.6558E+00  0.1624E+02
  16.398  0.6631E+00  0.1625E+02
  16.408  0.6715E+00  0.1625E+02
  16.418  0.6811E+00  0.1626E+02
  16.428  0.6916E+00  0.1627E+02
  16.438  0.7030E+00  0.1627E+02
  16.448  0.7149E+00  0.1628E+02
  16.458  0.7271E+00  0.1629E+02
  16.468  0.7395E+00  0.1630E+02
  16.478  0.7519E+00  0.1630E+02
  16.488  0.7639E+00  0.1631E+02
  16.498  0.7756E+00  0.1632E+02
  16.508  0.7868E+00  0.1633E+02
  16.518  0.7974E+00  0.1633E+02
  16.528  0.8074E+00  0.1634E+02
  16.538  0.8167E+00  0.1635E+02
  16.548  0.8256E+00  0.1636E+02
  16.558  0.8340E+00  0.1637E+02
  16.568  0.8420E+00  0.1638E+02
  16.578  0.8497E+00  0.1638E+02
  16.588  0.8573E+00  0.1639E+02
  16.598  0.8648E+00  0.1640E+02
  16.608  0.8723E+00  0.1641E+02
  16.618  0.8798E+00  0.1642E+02
  16.628  0.8873E+00  0.1643E+02
  16.638  0.8947E+00  0.1644E+02
  16.648  0.9021E+00  0.1645E+02
  16.658  0.9093E+00  0.1645E+02
  16.668  0.9162E+00  0.1646E+02
  16.678  0.9226E+00  0.1647E+02
  16.688  0.9284E+00  0.1648E+02
  16.698  0.9335E+00  0.1649E+02
  16.708  0.9377E+00  0.1650E+02
  16.718  0.9409E+00  0.1651E+02
  16.728  0.9430E+00  0.1652E+02
  16.738  0.9440E+00  0.1653E+02
  16.748  0.9438E+00  0.1654E+02
  16.758  0.9425E+00  0.1655E+02
  16.768  0.9401E+00  0.1656E+02
  16.778  0.9367E+00  0.1657E+02
  16.788  0.9324E+00  0.1658E+02
  16.798  0.9274E+00  0.1659E+02
  16.808  0.9218E+00  0.1659E+02
  16.818  0.9158E+00  0.1660E+02
  16.828  0.9096E+00  0.1661E+02
  16.838  0.9034E+00  0.1662E+02
  16.848  0.8974E+00  0.1663E+02
  16.858  0.8918E+00  0.1664E+02
  16.868  0.8868E+00  0.1665E+02
  16.878  0.8825E+00  0.1666E+02
  16.888  0.8792E+00  0.1667E+02
  16.898  0.8768E+00  0.1667E+02
  16.908  0.8756E+00  0.1668E+02
  16.918  0.8755E+00  0.1669E+02
  16.928  0.8767E+00  0.1670E+02
  16.938  0.8792E+00  0.1671E+02
  16.948  0.8829E+00  0.1672E+02
  16.958  0.8877E+00  0.1673E+02
  16.968  0.8938E+00  0.1674E+02
  16.978  0.9008E+00  0.1675E+02
  16.988  0.9088E+00  0.1675E+02
  16.998  0.9175E+00  0.1676E+02
  17.008  0.9269E+00  0.1677E+02
  17.018  0.9368E+00  0.1678E+02
  17.028  0.9471E+00  0.1679E+02
  17.038  0.9575E+00  0.1680E+02
  17.048  0.9680E+00  0.1681E+02
  17.058  0.9784E+00  0.1682E+02
  17.068  0.9886E+00  0.1683E+02
  17.078  0.9986E+00  0.1684E+02
  17.088  0.1008E+01  0.1685E+02
  17.098  0.1017E+01  0.1686E+02
  17.108  0.1026E+01  0.1687E+02
  17.118  0.1035E+01  0.1688E+02
  17.128  0.1043E+01  0.1689E+02
  17.138  0.1051E+01  0.1690E+02
  17.148  0.1058E+01  0.1691E+02
  17.158  0.1066E+01  0.1692E+02
  17.168  0.1072E+01  0.1693E+02
  17.178  0.1079E+01  0.1695E+02
  17.188  0.1085E+01  0.1696E+02
  17.198  0.1090E+01  0.1697E+02
  17.208  0.1095E+01  0.1698E+02
  17.218  0.1099E+01  0.1699E+02
  17.228  0.1102E+01  0.1700E+02
  17.238  0.1104E+01  0.1701E+02
  17.248  0.1105E+01  0.1702E+02
  17.258  0.1105E+01  0.1703E+02
  17.268  0.1104E+01  0.1704E+02
  17.278  0.1101E+01  0.1706E+02
  17.288  0.1097E+01  0.1707E+02
  17.298  0.1092E+01  0.1708E+02
  17.308  0.1086E+01  0.1709E+02
  17.318  0.1078E+01  0.1710E+02
  17.328  0.1071E+01  0.1711E+02
  17.338  0.1062E+01  0.1712E+02
  17.348  0.1053E+01  0.1713E+02
  17.358  0.1045E+01  0.1714E+02
  17.368  0.1036E+01  0.1715E+02
  17.378  0.1028E+01  0.1716E+02
  17.388  0.1020E+01  0.1717E+02
  17.398  0.1013E+01  0.1718E+02
  17.408  0.1007E+01  0.1719E+02
  17.418  0.1002E+01  0.1720E+02
  17.428  0.9979E+00  0.1721E+02
  17.438  0.9947E+00  0.1722E+02
  17.448  0.9926E+00  0.1723E+02
  17.458  0.9914E+00  0.1724E+02
  17.468  0.9913E+00  0.1725E+02
  17.478  0.9921E+00  0.1726E+02
  17.488  0.9938E+00  0.1727E+02
  17.498  0.9963E+00  0.1728E+02
  17.508  0.9996E+00  0.1729E+02
  17.518  0.1004E+01  0.1730E+02
  17.528  0.1008E+01  0.1731E+02
  17.538  0.1013E+01  0.1732E+02
  17.548  0.1018E+01  0.1733E+02
  17.558  0.1023E+01  0.1734E+02
  17.568  0.1029E+01  0.1735E+02
  17.578  0.1034E+01  0.1736E+02
  17.588  0.1039E+01  0.1737E+02
  17.598  0.1044E+01  0.1738E+02
  17.608  0.1048E+01  0.1739E+02
  17.618  0.1052E+01  0.1740E+02
  17.628  0.1055E+01  0.1742E+02
  17.638  0.1057E+01  0.1743E+02
  17.648  0.1059E+01  0.1744E+02
  17.658  0.1060E+01  0.1745E+02
  17.668  0.1060E+01  0.1746E+02
  17.678  0.1060E+01  0.1747E+02
  17.688  0.1058E+01  0.1748E+02
  17.698  0.1056E+01  0.1749E+02
  17.708  0.1053E+01  0.1750E+02
  17.718  0.1049E+01  0.1751E+02
  17.728  0.1045E+01  0.1752E+02
  17.738  0.1040E+01  0.1753E+02
  17.748  0.1034E+01  0.1754E+02
  17.758  0.1028E+01  0.1755E+02
  17.768  0.1022E+01  0.1756E+02
  17.778  0.1015E+01  0.1757E+02
  17.788  0.1007E+01  0.1758E+02
  17.798  0.1000E+01  0.1759E+02
  17.808  0.9926E+00  0.1760E+02
  17.818  0.9852E+00  0.1761E+02
  17.828  0.9781E+00  0.1762E+02
  17.838  0.9714E+00  0.1763E+02
  17.848  0.9653E+00  0.1764E+02
  17.858  0.9599E+00  0.1765E+02
  17.868  0.9554E+00  0.1766E+02
  17.878  0.9520E+00  0.1767E+02
  17.888  0.9498E+00  0.1768E+02
  17.898  0.9490E+00  0.1769E+02
  17.908  0.9498E+00  0.1770E+02
  17.918  0.9522E+00  0.1771E+02
  17.928  0.9564E+00  0.1772E+02
  17.938  0.9625E+00  0.1773E+02
  17.948  0.9703E+00  0.1774E+02
  17.958  0.9801E+00  0.1775E+02
  17.968  0.9916E+00  0.1776E+02
  17.978  0.1005E+01  0.1777E+02
  17.988  0.1020E+01  0.1778E+02
  17.998  0.1036E+01  0.1779E+02
  18.008  0.1054E+01  0.1780E+02
  18.018  0.1073E+01  0.1781E+02
  18.028  0.1092E+01  0.1782E+02
  18.038  0.1112E+01  0.1783E+02
  18.048  0.1132E+01  0.1784E+02
  18.058  0.1152E+01  0.1785E+02
  18.068  0.1171E+01  0.1787E+02
  18.078  0.1188E+01  0.1788E+02
  18.088  0.1204E+01  0.1789E+02
  18.098  0.1217E+01  0.1790E+02
  18.108  0.1228E+01  0.1791E+02
  18.118  0.1235E+01  0.1793E+02
  18.128  0.1238E+01  0.1794E+02
  18.138  0.1238E+01  0.1795E+02
  18.148  0.1234E+01  0.1796E+02
  18.158  0.1225E+01  0.1798E+02
  18.168  0.1212E+01  0.1799E+02
  18.178  0.1195E+01  0.1800E+02
  18.188  0.1174E+01  0.1801E+02
  18.198  0.1150E+01  0.1802E+02
  18.208  0.1123E+01  0.1803E+02
  18.218  0.1093E+01  0.1804E+02
  18.228  0.1061E+01  0.1806E+02
  18.238  0.1029E+01  0.1807E+02
  18.248  0.9958E+00  0.1808E+02
  18.258  0.9629E+00  0.1809E+02
  18.268  0.9308E+00  0.1809E+02
  18.278  0.9001E+00  0.1810E+02
  18.288  0.8711E+00  0.1811E+02
  18.298  0.8443E+00  0.1812E+02
  18.308  0.8199E+00  0.1813E+02
  18.318  0.7981E+00  0.1814E+02
  18.328  0.7790E+00  0.1814E+02
  18.338  0.7625E+00  0.1815E+02
  18.348  0.7487E+00  0.1816E+02
  18.358  0.7374E+00  0.1817E+02
  18.368  0.7283E+00  0.1817E+02
  18.378  0.7214E+00  0.1818E+02
  18.388  0.7164E+00  0.1819E+02
  18.398  0.7131E+00  0.1820E+02
  18.408  0.7113E+00  0.1820E+02
  18.418  0.7109E+00  0.1821E+02
  18.428  0.7118E+00  0.1822E+02
  18.438  0.7139E+00  0.1822E+02
  18.448  0.7170E+00  0.1823E+02
  18.458  0.7211E+00  0.1824E+02
  18.468  0.7262E+00  0.1825E+02
  18.478  0.7323E+00  0.1825E+02
  18.488  0.7393E+00  0.1826E+02
  18.498  0.7471E+00  0.1827E+02
  18.508  0.7556E+00  0.1828E+02
  18.518  0.7648E+00  0.1828E+02
  18.528  0.7746E+00  0.1829E+02
  18.538  0.7847E+00  0.1830E+02
  18.548  0.7950E+00  0.1831E+02
  18.558  0.8054E+00  0.1831E+02
  18.568  0.8156E+00  0.1832E+02
  18.578  0.8255E+00  0.1833E+02
  18.588  0.8350E+00  0.1834E+02
  18.598  0.8438E+00  0.1835E+02
  18.608  0.8519E+00  0.1836E+02
  18.618  0.8593E+00  0.1837E+02
  18.628  0.8658E+00  0.1837E+02
  18.638  0.8714E+00  0.1838E+02
  18.648  0.8763E+00  0.1839E+02
  18.658  0.8804E+00  0.1840E+02
  18.668  0.8839E+00  0.1841E+02
  18.678  0.8868E+00  0.1842E+02
  18.688  0.8893E+00  0.1843E+02
  18.698  0.8914E+00  0.1844E+02
  18.708  0.8933E+00  0.1844E+02
  18.718  0.8951E+00  0.1845E+02
  18.728  0.8968E+00  0.1846E+02
  18.738  0.8986E+00  0.1847E+02
  18.748  0.9005E+00  0.1848E+02
  18.758  0.9025E+00  0.1849E+02
  18.768  0.9046E+00  0.1850E+02
  18.778  0.9069E+00  0.1851E+02
  18.788  0.9092E+00  0.1852E+02
  18.798  0.9117E+00  0.1853E+02
  18.808  0.9142E+00  0.1854E+02
  18.818  0.9168E+00  0.1854E+02
  18.828  0.9193E+00  0.1855E+02
  18.838  0.9219E+00  0.1856E+02
  18.848  0.9244E+00  0.1857E+02
  18.858  0.9269E+00  0.1858E+02
  18.868  0.9294E+00  0.1859E+02
  18.878  0.9320E+00  0.1860E+02
  18.888  0.9346E+00  0.1861E+02
  18.898  0.9373E+00  0.1862E+02
  18.908  0.9402E+00  0.1863E+02
  18.918  0.9432E+00  0.1864E+02
  18.928  0.9464E+00  0.1865E+02
  18.938  0.9498E+00  0.1866E+02
  18.948  0.9534E+00  0.1867E+02
  18.958  0.9572E+00  0.1868E+02
  18.968  0.9612E+00  0.1869E+02
  18.978  0.9652E+00  0.1869E+02
  18.988  0.9693E+00  0.1870E+02
  18.998  0.9735E+00  0.1871E+02
  19.008  0.9776E+00  0.1872E+02
  19.018  0.9816E+00  0.1873E+02
  19.028  0.9856E+00  0.1874E+02
  19.038  0.9895E+00  0.1875E+02
  19.048  0.9934E+00  0.1876E+02
  19.058  0.9973E+00  0.1877E+02
  19.068  0.1001E+01  0.1878E+02
  19.078  0.1005E+01  0.1879E+02
  19.088  0.1010E+01  0.1880E+02
  19.098  0.1014E+01  0.1881E+02
  19.108  0.1019E+01  0.1882E+02
  19.118  0.1024E+01  0.1883E+02
  19.128  0.1030E+01  0.1884E+02
  19.138  0.1036E+01  0.1885E+02
  19.148  0.1041E+01  0.1887E+02
  19.158  0.1047E+01  0.1888E+02
  19.168  0.1053E+01  0.1889E+02
  19.178  0.1058E+01  0.1890E+02
  19.188  0.1063E+01  0.1891E+02
  19.198  0.1066E+01  0.1892E+02
  19.208  0.1069E+01  0.1893E+02
  19.218  0.1070E+01  0.1894E+02
  19.228  0.1070E+01  0.1895E+02
  19.238  0.1068E+01  0.1896E+02
  19.248  0.1065E+01  0.1897E+02
  19.258  0.1059E+01  0.1898E+02
  19.268  0.1051E+01  0.1899E+02
  19.278  0.1042E+01  0.1900E+02
  19.288  0.1030E+01  0.1901E+02
  19.298  0.1017E+01  0.1902E+02
  19.308  0.1002E+01  0.1903E+02
  19.318  0.9849E+00  0.1904E+02
  19.328  0.9667E+00  0.1905E+02
  19.338  0.9472E+00  0.1906E+02
  19.348  0.9267E+00  0.1907E+02
  19.358  0.9053E+00  0.1908E+02
  19.368  0.8831E+00  0.1909E+02
  19.378  0.8605E+00  0.1910E+02
  19.388  0.8376E+00  0.1911E+02
  19.398  0.8145E+00  0.1911E+02
  19.408  0.7915E+00  0.1912E+02
  19.418  0.7687E+00  0.1913E+02
  19.428  0.7463E+00  0.1914E+02
  19.438  0.7246E+00  0.1915E+02
  19.448  0.7037E+00  0.1915E+02
  19.458  0.6838E+00  0.1916E+02
  19.468  0.6650E+00  0.1917E+02
  19.478  0.6476E+00  0.1917E+02
  19.488  0.6316E+00  0.1918E+02
  19.498  0.6174E+00  0.1918E+02
  19.508  0.6049E+00  0.1919E+02
  19.518  0.5944E+00  0.1920E+02
  19.528  0.5859E+00  0.1920E+02
  19.538  0.5796E+00  0.1921E+02
  19.548  0.5754E+00  0.1921E+02
  19.558  0.5733E+00  0.1922E+02
  19.568  0.5735E+00  0.1923E+02
  19.578  0.5759E+00  0.1923E+02
  19.588  0.5804E+00  0.1924E+02
  19.598  0.5870E+00  0.1924E+02
  19.608  0.5956E+00  0.1925E+02
  19.618  0.6060E+00  0.1925E+02
  19.628  0.6182E+00  0.1926E+02
  19.638  0.6319E+00  0.1927E+02
  19.648  0.6469E+00  0.1927E+02
  19.658  0.6631E+00  0.1928E+02
  19.668  0.6802E+00  0.1929E+02
  19.678  0.6979E+00  0.1929E+02
  19.688  0.7159E+00  0.1930E+02
  19.698  0.7340E+00  0.1931E+02
  19.708  0.7519E+00  0.1932E+02
  19.718  0.7694E+00  0.1932E+02
  19.728  0.7861E+00  0.1933E+02
  19.738  0.8019E+00  0.1934E+02
  19.748  0.8165E+00  0.1935E+02
  19.758  0.8299E+00  0.1936E+02
  19.768  0.8419E+00  0.1936E+02
  19.778  0.8525E+00  0.1937E+02
  19.788  0.8616E+00  0.1938E+02
  19.798  0.8694E+00  0.1939E+02
  19.808  0.8760E+00  0.1940E+02
  19.818  0.8815E+00  0.1941E+02
  19.828  0.8861E+00  0.1942E+02
  19.838  0.8899E+00  0.1943E+02
  19.848  0.8932E+00  0.1943E+02
  19.858  0.8961E+00  0.1944E+02
  19.868  0.8988E+00  0.1945E+02
  19.878  0.9014E+00  0.1946E+02
  19.888  0.9040E+00  0.1947E+02
  19.898  0.9067E+00  0.1948E+02
  19.908  0.9094E+00  0.1949E+02
  19.918  0.9121E+00  0.1950E+02
  19.928  0.9148E+00  0.1951E+02
  19.938  0.9173E+00  0.1952E+02
  19.948  0.9196E+00  0.1953E+02
  19.958  0.9216E+00  0.1953E+02
  19.968  0.9231E+00  0.1954E+02
  19.978  0.9240E+00  0.1955E+02
  19.988  0.9243E+00  0.1956E+02
  19.998  0.9239E+00  0.1957E+02
  20.008  0.9227E+00  0.1958E+02
  20.018  0.9208E+00  0.1959E+02
  20.028  0.9182E+00  0.1960E+02
  20.038  0.9149E+00  0.1961E+02
  20.048  0.9109E+00  0.1962E+02
  20.058  0.9063E+00  0.1963E+02
  20.068  0.9012E+00  0.1964E+02
  20.078  0.8957E+00  0.1964E+02
  20.088  0.8898E+00  0.1965E+02
  20.098  0.8835E+00  0.1966E+02
  20.108  0.8770E+00  0.1967E+02
  20.118  0.8703E+00  0.1968E+02
  20.128  0.8634E+00  0.1969E+02
  20.138  0.8564E+00  0.1970E+02
  20.148  0.8493E+00  0.1971E+02
  20.158  0.8422E+00  0.1971E+02
  20.168  0.8350E+00  0.1972E+02
  20.178  0.8279E+00  0.1973E+02
  20.188  0.8208E+00  0.1974E+02
  20.198  0.8138E+00  0.1975E+02
  20.208  0.8068E+00  0.1976E+02
  20.218  0.7999E+00  0.1976E+02
  20.228  0.7929E+00  0.1977E+02
  20.238  0.7859E+00  0.1978E+02
  20.248  0.7787E+00  0.1979E+02
  20.258  0.7711E+00  0.1979E+02
  20.268  0.7631E+00  0.1980E+02
  20.278  0.7543E+00  0.1981E+02
  20.288  0.7447E+00  0.1982E+02
  20.298  0.7341E+00  0.1982E+02
  20.308  0.7222E+00  0.1983E+02
  20.318  0.7090E+00  0.1984E+02
  20.328  0.6943E+00  0.1985E+02
  20.338  0.6781E+00  0.1985E+02
  20.348  0.6605E+00  0.1986E+02
  20.358  0.6415E+00  0.1987E+02
  20.368  0.6213E+00  0.1987E+02
  20.378  0.6002E+00  0.1988E+02
  20.388  0.5784E+00  0.1988E+02
  20.398  0.5563E+00  0.1989E+02
  20.408  0.5342E+00  0.1989E+02
  20.418  0.5126E+00  0.1990E+02
  20.428  0.4917E+00  0.1990E+02
  20.438  0.4719E+00  0.1991E+02
  20.448  0.4534E+00  0.1991E+02
  20.458  0.4365E+00  0.1992E+02
  20.468  0.4213E+00  0.1992E+02
  20.478  0.4078E+00  0.1993E+02
  20.488  0.3960E+00  0.1993E+02
  20.498  0.3857E+00  0.1993E+02
  20.508  0.3768E+00  0.1994E+02
  20.518  0.3689E+00  0.1994E+02
  20.528  0.3617E+00  0.1995E+02
  20.538  0.3550E+00  0.1995E+02
  20.548  0.3484E+00  0.1995E+02
  20.558  0.3415E+00  0.1996E+02
  20.568  0.3340E+00  0.1996E+02
  20.578  0.3258E+00  0.1996E+02
  20.588  0.3165E+00  0.1997E+02
  20.598  0.3061E+00  0.1997E+02
  20.608  0.2945E+00  0.1997E+02
  20.618  0.2817E+00  0.1997E+02
  20.628  0.2677E+00  0.1998E+02
  20.638  0.2527E+00  0.1998E+02
  20.648  0.2368E+00  0.1998E+02
  20.658  0.2203E+00  0.1998E+02
  20.668  0.2033E+00  0.1999E+02
  20.678  0.1861E+00  0.1999E+02
  20.688  0.1690E+00  0.1999E+02
  20.698  0.1522E+00  0.1999E+02
  20.708  0.1358E+00  0.1999E+02
  20.718  0.1202E+00  0.1999E+02
  20.728  0.1055E+00  0.1999E+02
  20.738  0.9169E-01  0.2000E+02
  20.748  0.7900E-01  0.2000E+02
  20.758  0.6746E-01  0.2000E+02
  20.768  0.5707E-01  0.2000E+02
  20.778  0.4783E-01  0.2000E+02
  20.788  0.3972E-01  0.2000E+02
  20.798  0.3268E-01  0.2000E+02
  20.808  0.2663E-01  0.2000E+02
  20.818  0.2149E-01  0.2000E+02
  20.828  0.1718E-01  0.2000E+02
  20.838  0.1360E-01  0.2000E+02
  20.848  0.1066E-01  0.2000E+02
  20.858  0.8276E-02  0.2000E+02
  20.868  0.6362E-02  0.2000E+02
  20.878  0.4842E-02  0.2000E+02
  20.888  0.3649E-02  0.2000E+02
  20.898  0.2723E-02  0.2000E+02
  20.908  0.2011E-02  0.2000E+02
  20.918  0.1470E-02  0.2000E+02
  20.928  0.1064E-02  0.2000E+02
  20.938  0.7627E-03  0.2000E+02
  20.948  0.5409E-03  0.2000E+02
  20.958  0.3797E-03  0.2000E+02
  20.968  0.2638E-03  0.2000E+02
  20.978  0.1814E-03  0.2000E+02
  20.988  0.1235E-03  0.2000E+02
  20.998  0.8319E-04  0.2000E+02
  21.008  0.5546E-04  0.2000E+02
  21.018  0.3659E-04  0.2000E+02
  21.028  0.2389E-04  0.2000E+02
  21.038  0.1543E-04  0.2000E+02
