#  E (eV)   dos(E)     Int dos(E) EFermi =    4.785 eV
 -10.275  0.9326E-06  0.9326E-08
 -10.265  0.1126E-05  0.2059E-07
 -10.255  0.1358E-05  0.3417E-07
 -10.245  0.1635E-05  0.5053E-07
 -10.235  0.1965E-05  0.7018E-07
 -10.225  0.2359E-05  0.9377E-07
 -10.215  0.2826E-05  0.1220E-06
 -10.205  0.3380E-05  0.1558E-06
 -10.195  0.4036E-05  0.1962E-06
 -10.185  0.4812E-05  0.2443E-06
 -10.175  0.5729E-05  0.3016E-06
 -10.165  0.6808E-05  0.3697E-06
 -10.155  0.8078E-05  0.4505E-06
 -10.145  0.9570E-05  0.5462E-06
 -10.135  0.1132E-04  0.6593E-06
 -10.125  0.1337E-04  0.7930E-06
 -10.115  0.1576E-04  0.9506E-06
 -10.105  0.1855E-04  0.1136E-05
 -10.095  0.2180E-04  0.1354E-05
 -10.085  0.2558E-04  0.1610E-05
 -10.075  0.2997E-04  0.1910E-05
 -10.065  0.3505E-04  0.2260E-05
 -10.055  0.4094E-04  0.2670E-05
 -10.045  0.4773E-04  0.3147E-05
 -10.035  0.5556E-04  0.3702E-05
 -10.025  0.6458E-04  0.4348E-05
 -10.015  0.7495E-04  0.5098E-05
 -10.005  0.8684E-04  0.5966E-05
  -9.995  0.1005E-03  0.6971E-05
  -9.985  0.1160E-03  0.8131E-05
  -9.975  0.1338E-03  0.9469E-05
  -9.965  0.1541E-03  0.1101E-04
  -9.955  0.1771E-03  0.1278E-04
  -9.945  0.2033E-03  0.1481E-04
  -9.935  0.2330E-03  0.1714E-04
  -9.925  0.2667E-03  0.1981E-04
  -9.915  0.3047E-03  0.2286E-04
  -9.905  0.3476E-03  0.2633E-04
  -9.895  0.3959E-03  0.3029E-04
  -9.885  0.4503E-03  0.3480E-04
  -9.875  0.5113E-03  0.3991E-04
  -9.865  0.5798E-03  0.4571E-04
  -9.855  0.6564E-03  0.5227E-04
  -9.845  0.7420E-03  0.5969E-04
  -9.835  0.8374E-03  0.6806E-04
  -9.825  0.9438E-03  0.7750E-04
  -9.815  0.1062E-02  0.8812E-04
  -9.805  0.1193E-02  0.1001E-03
  -9.795  0.1339E-02  0.1134E-03
  -9.785  0.1500E-02  0.1284E-03
  -9.775  0.1678E-02  0.1452E-03
  -9.765  0.1874E-02  0.1640E-03
  -9.755  0.2090E-02  0.1849E-03
  -9.745  0.2327E-02  0.2081E-03
  -9.735  0.2588E-02  0.2340E-03
  -9.725  0.2874E-02  0.2628E-03
  -9.715  0.3186E-02  0.2946E-03
  -9.705  0.3528E-02  0.3299E-03
  -9.695  0.3900E-02  0.3689E-03
  -9.685  0.4306E-02  0.4120E-03
  -9.675  0.4747E-02  0.4594E-03
  -9.665  0.5225E-02  0.5117E-03
  -9.655  0.5744E-02  0.5691E-03
  -9.645  0.6305E-02  0.6322E-03
  -9.635  0.6911E-02  0.7013E-03
  -9.625  0.7565E-02  0.7769E-03
  -9.615  0.8269E-02  0.8596E-03
  -9.605  0.9026E-02  0.9499E-03
  -9.595  0.9839E-02  0.1048E-02
  -9.585  0.1071E-01  0.1155E-02
  -9.575  0.1164E-01  0.1272E-02
  -9.565  0.1264E-01  0.1398E-02
  -9.555  0.1370E-01  0.1535E-02
  -9.545  0.1483E-01  0.1684E-02
  -9.535  0.1604E-01  0.1844E-02
  -9.525  0.1732E-01  0.2017E-02
  -9.515  0.1868E-01  0.2204E-02
  -9.505  0.2011E-01  0.2405E-02
  -9.495  0.2163E-01  0.2621E-02
  -9.485  0.2324E-01  0.2854E-02
  -9.475  0.2493E-01  0.3103E-02
  -9.465  0.2671E-01  0.3370E-02
  -9.455  0.2858E-01  0.3656E-02
  -9.445  0.3054E-01  0.3961E-02
  -9.435  0.3260E-01  0.4287E-02
  -9.425  0.3475E-01  0.4635E-02
  -9.415  0.3700E-01  0.5005E-02
  -9.405  0.3935E-01  0.5398E-02
  -9.395  0.4179E-01  0.5816E-02
  -9.385  0.4434E-01  0.6259E-02
  -9.375  0.4698E-01  0.6729E-02
  -9.365  0.4973E-01  0.7226E-02
  -9.355  0.5257E-01  0.7752E-02
  -9.345  0.5551E-01  0.8307E-02
  -9.335  0.5856E-01  0.8893E-02
  -9.325  0.6169E-01  0.9510E-02
  -9.315  0.6493E-01  0.1016E-01
  -9.305  0.6826E-01  0.1084E-01
  -9.295  0.7168E-01  0.1156E-01
  -9.285  0.7520E-01  0.1231E-01
  -9.275  0.7880E-01  0.1310E-01
  -9.265  0.8250E-01  0.1392E-01
  -9.255  0.8627E-01  0.1479E-01
  -9.245  0.9013E-01  0.1569E-01
  -9.235  0.9407E-01  0.1663E-01
  -9.225  0.9808E-01  0.1761E-01
  -9.215  0.1022E+00  0.1863E-01
  -9.205  0.1063E+00  0.1969E-01
  -9.195  0.1105E+00  0.2080E-01
  -9.185  0.1148E+00  0.2195E-01
  -9.175  0.1192E+00  0.2314E-01
  -9.165  0.1236E+00  0.2437E-01
  -9.155  0.1280E+00  0.2565E-01
  -9.145  0.1325E+00  0.2698E-01
  -9.135  0.1370E+00  0.2835E-01
  -9.125  0.1416E+00  0.2977E-01
  -9.115  0.1462E+00  0.3123E-01
  -9.105  0.1508E+00  0.3274E-01
  -9.095  0.1555E+00  0.3429E-01
  -9.085  0.1602E+00  0.3589E-01
  -9.075  0.1649E+00  0.3754E-01
  -9.065  0.1696E+00  0.3924E-01
  -9.055  0.1744E+00  0.4098E-01
  -9.045  0.1791E+00  0.4277E-01
  -9.035  0.1839E+00  0.4461E-01
  -9.025  0.1886E+00  0.4650E-01
  -9.015  0.1934E+00  0.4843E-01
  -9.005  0.1981E+00  0.5041E-01
  -8.995  0.2029E+00  0.5244E-01
  -8.985  0.2076E+00  0.5452E-01
  -8.975  0.2124E+00  0.5664E-01
  -8.965  0.2171E+00  0.5881E-01
  -8.955  0.2218E+00  0.6103E-01
  -8.945  0.2265E+00  0.6329E-01
  -8.935  0.2311E+00  0.6561E-01
  -8.925  0.2358E+00  0.6796E-01
  -8.915  0.2404E+00  0.7037E-01
  -8.905  0.2450E+00  0.7282E-01
  -8.895  0.2496E+00  0.7531E-01
  -8.885  0.2542E+00  0.7786E-01
  -8.875  0.2588E+00  0.8044E-01
  -8.865  0.2633E+00  0.8308E-01
  -8.855  0.2678E+00  0.8576E-01
  -8.845  0.2723E+00  0.8848E-01
  -8.835  0.2767E+00  0.9125E-01
  -8.825  0.2812E+00  0.9406E-01
  -8.815  0.2856E+00  0.9691E-01
  -8.805  0.2900E+00  0.9981E-01
  -8.795  0.2943E+00  0.1028E+00
  -8.785  0.2987E+00  0.1057E+00
  -8.775  0.3030E+00  0.1088E+00
  -8.765  0.3073E+00  0.1118E+00
  -8.755  0.3116E+00  0.1150E+00
  -8.745  0.3159E+00  0.1181E+00
  -8.735  0.3202E+00  0.1213E+00
  -8.725  0.3244E+00  0.1246E+00
  -8.715  0.3286E+00  0.1279E+00
  -8.705  0.3328E+00  0.1312E+00
  -8.695  0.3371E+00  0.1346E+00
  -8.685  0.3412E+00  0.1380E+00
  -8.675  0.3454E+00  0.1414E+00
  -8.665  0.3496E+00  0.1449E+00
  -8.655  0.3538E+00  0.1485E+00
  -8.645  0.3580E+00  0.1520E+00
  -8.635  0.3621E+00  0.1557E+00
  -8.625  0.3663E+00  0.1593E+00
  -8.615  0.3704E+00  0.1630E+00
  -8.605  0.3746E+00  0.1668E+00
  -8.595  0.3788E+00  0.1706E+00
  -8.585  0.3829E+00  0.1744E+00
  -8.575  0.3871E+00  0.1783E+00
  -8.565  0.3913E+00  0.1822E+00
  -8.555  0.3955E+00  0.1861E+00
  -8.545  0.3997E+00  0.1901E+00
  -8.535  0.4039E+00  0.1942E+00
  -8.525  0.4081E+00  0.1982E+00
  -8.515  0.4123E+00  0.2024E+00
  -8.505  0.4165E+00  0.2065E+00
  -8.495  0.4208E+00  0.2107E+00
  -8.485  0.4251E+00  0.2150E+00
  -8.475  0.4294E+00  0.2193E+00
  -8.465  0.4337E+00  0.2236E+00
  -8.455  0.4380E+00  0.2280E+00
  -8.445  0.4424E+00  0.2324E+00
  -8.435  0.4468E+00  0.2369E+00
  -8.425  0.4512E+00  0.2414E+00
  -8.415  0.4556E+00  0.2460E+00
  -8.405  0.4601E+00  0.2506E+00
  -8.395  0.4646E+00  0.2552E+00
  -8.385  0.4692E+00  0.2599E+00
  -8.375  0.4737E+00  0.2646E+00
  -8.365  0.4784E+00  0.2694E+00
  -8.355  0.4830E+00  0.2742E+00
  -8.345  0.4877E+00  0.2791E+00
  -8.335  0.4924E+00  0.2840E+00
  -8.325  0.4972E+00  0.2890E+00
  -8.315  0.5020E+00  0.2940E+00
  -8.305  0.5069E+00  0.2991E+00
  -8.295  0.5119E+00  0.3042E+00
  -8.285  0.5168E+00  0.3094E+00
  -8.275  0.5219E+00  0.3146E+00
  -8.265  0.5270E+00  0.3199E+00
  -8.255  0.5321E+00  0.3252E+00
  -8.245  0.5374E+00  0.3306E+00
  -8.235  0.5427E+00  0.3360E+00
  -8.225  0.5480E+00  0.3415E+00
  -8.215  0.5535E+00  0.3470E+00
  -8.205  0.5590E+00  0.3526E+00
  -8.195  0.5646E+00  0.3583E+00
  -8.185  0.5703E+00  0.3640E+00
  -8.175  0.5760E+00  0.3697E+00
  -8.165  0.5819E+00  0.3755E+00
  -8.155  0.5878E+00  0.3814E+00
  -8.145  0.5939E+00  0.3874E+00
  -8.135  0.6000E+00  0.3934E+00
  -8.125  0.6063E+00  0.3994E+00
  -8.115  0.6126E+00  0.4055E+00
  -8.105  0.6191E+00  0.4117E+00
  -8.095  0.6257E+00  0.4180E+00
  -8.085  0.6324E+00  0.4243E+00
  -8.075  0.6392E+00  0.4307E+00
  -8.065  0.6461E+00  0.4372E+00
  -8.055  0.6532E+00  0.4437E+00
  -8.045  0.6604E+00  0.4503E+00
  -8.035  0.6678E+00  0.4570E+00
  -8.025  0.6753E+00  0.4637E+00
  -8.015  0.6829E+00  0.4706E+00
  -8.005  0.6907E+00  0.4775E+00
  -7.995  0.6987E+00  0.4845E+00
  -7.985  0.7068E+00  0.4915E+00
  -7.975  0.7150E+00  0.4987E+00
  -7.965  0.7235E+00  0.5059E+00
  -7.955  0.7321E+00  0.5132E+00
  -7.945  0.7408E+00  0.5206E+00
  -7.935  0.7498E+00  0.5281E+00
  -7.925  0.7589E+00  0.5357E+00
  -7.915  0.7681E+00  0.5434E+00
  -7.905  0.7776E+00  0.5512E+00
  -7.895  0.7872E+00  0.5591E+00
  -7.885  0.7971E+00  0.5670E+00
  -7.875  0.8071E+00  0.5751E+00
  -7.865  0.8172E+00  0.5833E+00
  -7.855  0.8276E+00  0.5915E+00
  -7.845  0.8381E+00  0.5999E+00
  -7.835  0.8488E+00  0.6084E+00
  -7.825  0.8597E+00  0.6170E+00
  -7.815  0.8707E+00  0.6257E+00
  -7.805  0.8819E+00  0.6345E+00
  -7.795  0.8933E+00  0.6435E+00
  -7.785  0.9048E+00  0.6525E+00
  -7.775  0.9164E+00  0.6617E+00
  -7.765  0.9282E+00  0.6710E+00
  -7.755  0.9402E+00  0.6804E+00
  -7.745  0.9523E+00  0.6899E+00
  -7.735  0.9645E+00  0.6995E+00
  -7.725  0.9768E+00  0.7093E+00
  -7.715  0.9892E+00  0.7192E+00
  -7.705  0.1002E+01  0.7292E+00
  -7.695  0.1014E+01  0.7394E+00
  -7.685  0.1027E+01  0.7496E+00
  -7.675  0.1040E+01  0.7600E+00
  -7.665  0.1053E+01  0.7705E+00
  -7.655  0.1065E+01  0.7812E+00
  -7.645  0.1078E+01  0.7920E+00
  -7.635  0.1091E+01  0.8029E+00
  -7.625  0.1104E+01  0.8139E+00
  -7.615  0.1117E+01  0.8251E+00
  -7.605  0.1130E+01  0.8364E+00
  -7.595  0.1143E+01  0.8478E+00
  -7.585  0.1155E+01  0.8594E+00
  -7.575  0.1168E+01  0.8711E+00
  -7.565  0.1181E+01  0.8829E+00
  -7.555  0.1193E+01  0.8948E+00
  -7.545  0.1206E+01  0.9069E+00
  -7.535  0.1218E+01  0.9190E+00
  -7.525  0.1230E+01  0.9313E+00
  -7.515  0.1242E+01  0.9438E+00
  -7.505  0.1254E+01  0.9563E+00
  -7.495  0.1266E+01  0.9689E+00
  -7.485  0.1277E+01  0.9817E+00
  -7.475  0.1288E+01  0.9946E+00
  -7.465  0.1299E+01  0.1008E+01
  -7.455  0.1310E+01  0.1021E+01
  -7.445  0.1321E+01  0.1034E+01
  -7.435  0.1331E+01  0.1047E+01
  -7.425  0.1341E+01  0.1061E+01
  -7.415  0.1351E+01  0.1074E+01
  -7.405  0.1360E+01  0.1088E+01
  -7.395  0.1369E+01  0.1101E+01
  -7.385  0.1378E+01  0.1115E+01
  -7.375  0.1386E+01  0.1129E+01
  -7.365  0.1394E+01  0.1143E+01
  -7.355  0.1402E+01  0.1157E+01
  -7.345  0.1409E+01  0.1171E+01
  -7.335  0.1416E+01  0.1185E+01
  -7.325  0.1422E+01  0.1200E+01
  -7.315  0.1428E+01  0.1214E+01
  -7.305  0.1434E+01  0.1228E+01
  -7.295  0.1439E+01  0.1243E+01
  -7.285  0.1443E+01  0.1257E+01
  -7.275  0.1447E+01  0.1271E+01
  -7.265  0.1450E+01  0.1286E+01
  -7.255  0.1453E+01  0.1300E+01
  -7.245  0.1455E+01  0.1315E+01
  -7.235  0.1456E+01  0.1330E+01
  -7.225  0.1457E+01  0.1344E+01
  -7.215  0.1457E+01  0.1359E+01
  -7.205  0.1457E+01  0.1373E+01
  -7.195  0.1456E+01  0.1388E+01
  -7.185  0.1454E+01  0.1402E+01
  -7.175  0.1451E+01  0.1417E+01
  -7.165  0.1447E+01  0.1431E+01
  -7.155  0.1443E+01  0.1446E+01
  -7.145  0.1438E+01  0.1460E+01
  -7.135  0.1432E+01  0.1474E+01
  -7.125  0.1425E+01  0.1489E+01
  -7.115  0.1417E+01  0.1503E+01
  -7.105  0.1409E+01  0.1517E+01
  -7.095  0.1400E+01  0.1531E+01
  -7.085  0.1389E+01  0.1545E+01
  -7.075  0.1378E+01  0.1559E+01
  -7.065  0.1366E+01  0.1572E+01
  -7.055  0.1353E+01  0.1586E+01
  -7.045  0.1339E+01  0.1599E+01
  -7.035  0.1324E+01  0.1612E+01
  -7.025  0.1309E+01  0.1626E+01
  -7.015  0.1292E+01  0.1638E+01
  -7.005  0.1275E+01  0.1651E+01
  -6.995  0.1256E+01  0.1664E+01
  -6.985  0.1237E+01  0.1676E+01
  -6.975  0.1217E+01  0.1688E+01
  -6.965  0.1197E+01  0.1700E+01
  -6.955  0.1175E+01  0.1712E+01
  -6.945  0.1153E+01  0.1724E+01
  -6.935  0.1130E+01  0.1735E+01
  -6.925  0.1107E+01  0.1746E+01
  -6.915  0.1083E+01  0.1757E+01
  -6.905  0.1058E+01  0.1767E+01
  -6.895  0.1033E+01  0.1778E+01
  -6.885  0.1007E+01  0.1788E+01
  -6.875  0.9808E+00  0.1798E+01
  -6.865  0.9543E+00  0.1807E+01
  -6.855  0.9274E+00  0.1816E+01
  -6.845  0.9003E+00  0.1825E+01
  -6.835  0.8730E+00  0.1834E+01
  -6.825  0.8455E+00  0.1843E+01
  -6.815  0.8180E+00  0.1851E+01
  -6.805  0.7903E+00  0.1859E+01
  -6.795  0.7627E+00  0.1866E+01
  -6.785  0.7352E+00  0.1874E+01
  -6.775  0.7078E+00  0.1881E+01
  -6.765  0.6805E+00  0.1888E+01
  -6.755  0.6535E+00  0.1894E+01
  -6.745  0.6267E+00  0.1900E+01
  -6.735  0.6003E+00  0.1906E+01
  -6.725  0.5742E+00  0.1912E+01
  -6.715  0.5485E+00  0.1918E+01
  -6.705  0.5233E+00  0.1923E+01
  -6.695  0.4986E+00  0.1928E+01
  -6.685  0.4744E+00  0.1933E+01
  -6.675  0.4508E+00  0.1937E+01
  -6.665  0.4278E+00  0.1941E+01
  -6.655  0.4054E+00  0.1945E+01
  -6.645  0.3836E+00  0.1949E+01
  -6.635  0.3625E+00  0.1953E+01
  -6.625  0.3421E+00  0.1956E+01
  -6.615  0.3224E+00  0.1959E+01
  -6.605  0.3034E+00  0.1963E+01
  -6.595  0.2851E+00  0.1965E+01
  -6.585  0.2675E+00  0.1968E+01
  -6.575  0.2507E+00  0.1971E+01
  -6.565  0.2345E+00  0.1973E+01
  -6.555  0.2191E+00  0.1975E+01
  -6.545  0.2044E+00  0.1977E+01
  -6.535  0.1904E+00  0.1979E+01
  -6.525  0.1771E+00  0.1981E+01
  -6.515  0.1645E+00  0.1982E+01
  -6.505  0.1526E+00  0.1984E+01
  -6.495  0.1413E+00  0.1985E+01
  -6.485  0.1307E+00  0.1987E+01
  -6.475  0.1206E+00  0.1988E+01
  -6.465  0.1112E+00  0.1989E+01
  -6.455  0.1024E+00  0.1990E+01
  -6.445  0.9408E-01  0.1991E+01
  -6.435  0.8634E-01  0.1992E+01
  -6.425  0.7911E-01  0.1993E+01
  -6.415  0.7238E-01  0.1993E+01
  -6.405  0.6612E-01  0.1994E+01
  -6.395  0.6031E-01  0.1995E+01
  -6.385  0.5492E-01  0.1995E+01
  -6.375  0.4994E-01  0.1996E+01
  -6.365  0.4534E-01  0.1996E+01
  -6.355  0.4110E-01  0.1997E+01
  -6.345  0.3720E-01  0.1997E+01
  -6.335  0.3361E-01  0.1997E+01
  -6.325  0.3033E-01  0.1998E+01
  -6.315  0.2732E-01  0.1998E+01
  -6.305  0.2457E-01  0.1998E+01
  -6.295  0.2206E-01  0.1998E+01
  -6.285  0.1978E-01  0.1998E+01
  -6.275  0.1771E-01  0.1999E+01
  -6.265  0.1582E-01  0.1999E+01
  -6.255  0.1412E-01  0.1999E+01
  -6.245  0.1258E-01  0.1999E+01
  -6.235  0.1119E-01  0.1999E+01
  -6.225  0.9937E-02  0.1999E+01
  -6.215  0.8811E-02  0.1999E+01
  -6.205  0.7799E-02  0.1999E+01
  -6.195  0.6893E-02  0.2000E+01
  -6.185  0.6082E-02  0.2000E+01
  -6.175  0.5358E-02  0.2000E+01
  -6.165  0.4713E-02  0.2000E+01
  -6.155  0.4139E-02  0.2000E+01
  -6.145  0.3629E-02  0.2000E+01
  -6.135  0.3176E-02  0.2000E+01
  -6.125  0.2776E-02  0.2000E+01
  -6.115  0.2422E-02  0.2000E+01
  -6.105  0.2109E-02  0.2000E+01
  -6.095  0.1835E-02  0.2000E+01
  -6.085  0.1593E-02  0.2000E+01
  -6.075  0.1381E-02  0.2000E+01
  -6.065  0.1195E-02  0.2000E+01
  -6.055  0.1032E-02  0.2000E+01
  -6.045  0.8906E-03  0.2000E+01
  -6.035  0.7670E-03  0.2000E+01
  -6.025  0.6594E-03  0.2000E+01
  -6.015  0.5661E-03  0.2000E+01
  -6.005  0.4851E-03  0.2000E+01
  -5.995  0.4150E-03  0.2000E+01
  -5.985  0.3545E-03  0.2000E+01
  -5.975  0.3023E-03  0.2000E+01
  -5.965  0.2574E-03  0.2000E+01
  -5.955  0.2188E-03  0.2000E+01
  -5.945  0.1857E-03  0.2000E+01
  -5.935  0.1573E-03  0.2000E+01
  -5.925  0.1330E-03  0.2000E+01
  -5.915  0.1123E-03  0.2000E+01
  -5.905  0.9470E-04  0.2000E+01
  -5.895  0.7970E-04  0.2000E+01
  -5.885  0.6697E-04  0.2000E+01
  -5.875  0.5618E-04  0.2000E+01
  -5.865  0.4705E-04  0.2000E+01
  -5.855  0.3933E-04  0.2000E+01
  -5.845  0.3283E-04  0.2000E+01
  -5.835  0.2736E-04  0.2000E+01
  -5.825  0.2276E-04  0.2000E+01
  -5.815  0.1890E-04  0.2000E+01
  -5.805  0.1568E-04  0.2000E+01
  -5.795  0.1298E-04  0.2000E+01
  -5.785  0.1072E-04  0.2000E+01
  -5.775  0.8848E-05  0.2000E+01
  -5.765  0.7288E-05  0.2000E+01
  -5.755  0.5993E-05  0.2000E+01
  -5.745  0.4920E-05  0.2000E+01
  -5.735  0.4032E-05  0.2000E+01
  -5.725  0.3299E-05  0.2000E+01
  -5.715  0.2695E-05  0.2000E+01
  -5.705  0.2198E-05  0.2000E+01
  -5.695  0.1789E-05  0.2000E+01
  -5.685  0.1454E-05  0.2000E+01
  -5.675  0.1180E-05  0.2000E+01
  -5.665  0.9559E-06  0.2000E+01
  -5.655  0.7731E-06  0.2000E+01
  -5.645  0.6242E-06  0.2000E+01
  -5.635  0.5031E-06  0.2000E+01
  -5.625  0.4048E-06  0.2000E+01
  -5.615  0.3252E-06  0.2000E+01
  -5.605  0.2608E-06  0.2000E+01
  -5.595  0.2088E-06  0.2000E+01
  -5.585  0.1669E-06  0.2000E+01
  -5.575  0.1332E-06  0.2000E+01
  -5.565  0.1061E-06  0.2000E+01
  -5.555  0.8438E-07  0.2000E+01
  -5.545  0.6699E-07  0.2000E+01
  -5.535  0.5310E-07  0.2000E+01
  -5.525  0.4202E-07  0.2000E+01
  -5.515  0.3319E-07  0.2000E+01
  -5.505  0.2618E-07  0.2000E+01
  -5.495  0.2061E-07  0.2000E+01
  -5.485  0.1620E-07  0.2000E+01
  -5.475  0.1271E-07  0.2000E+01
  -5.465  0.9958E-08  0.2000E+01
  -5.455  0.7788E-08  0.2000E+01
  -5.445  0.6080E-08  0.2000E+01
  -5.435  0.4739E-08  0.2000E+01
  -5.425  0.3687E-08  0.2000E+01
  -5.415  0.2864E-08  0.2000E+01
  -5.405  0.2221E-08  0.2000E+01
  -5.395  0.1720E-08  0.2000E+01
  -5.385  0.1329E-08  0.2000E+01
  -5.375  0.1026E-08  0.2000E+01
  -5.365  0.7900E-09  0.2000E+01
  -5.355  0.6075E-09  0.2000E+01
  -5.345  0.4664E-09  0.2000E+01
  -5.335  0.3574E-09  0.2000E+01
  -5.325  0.2735E-09  0.2000E+01
  -5.315  0.2089E-09  0.2000E+01
  -5.305  0.1593E-09  0.2000E+01
  -5.295  0.1213E-09  0.2000E+01
  -5.285  0.9215E-10  0.2000E+01
  -5.275  0.6991E-10  0.2000E+01
  -5.265  0.5295E-10  0.2000E+01
  -5.255  0.4004E-10  0.2000E+01
  -5.245  0.3022E-10  0.2000E+01
  -5.235  0.2278E-10  0.2000E+01
  -5.225  0.1713E-10  0.2000E+01
  -5.215  0.1287E-10  0.2000E+01
  -5.205  0.9648E-11  0.2000E+01
  -5.195  0.7222E-11  0.2000E+01
  -5.185  0.5396E-11  0.2000E+01
  -5.175  0.4025E-11  0.2000E+01
  -5.165  0.2998E-11  0.2000E+01
  -5.155  0.2229E-11  0.2000E+01
  -5.145  0.1654E-11  0.2000E+01
  -5.135  0.1226E-11  0.2000E+01
  -5.125  0.9066E-12  0.2000E+01
  -5.115  0.6694E-12  0.2000E+01
  -5.105  0.4935E-12  0.2000E+01
  -5.095  0.3632E-12  0.2000E+01
  -5.085  0.2668E-12  0.2000E+01
  -5.075  0.1957E-12  0.2000E+01
  -5.065  0.1433E-12  0.2000E+01
  -5.055  0.1047E-12  0.2000E+01
  -5.045  0.7644E-13  0.2000E+01
  -5.035  0.5568E-13  0.2000E+01
  -5.025  0.4050E-13  0.2000E+01
  -5.015  0.2940E-13  0.2000E+01
  -5.005  0.2131E-13  0.2000E+01
  -4.995  0.1542E-13  0.2000E+01
  -4.985  0.1114E-13  0.2000E+01
  -4.975  0.8032E-14  0.2000E+01
  -4.965  0.5782E-14  0.2000E+01
  -4.955  0.4156E-14  0.2000E+01
  -4.945  0.2981E-14  0.2000E+01
  -4.935  0.2135E-14  0.2000E+01
  -4.925  0.1527E-14  0.2000E+01
  -4.915  0.1090E-14  0.2000E+01
  -4.905  0.7767E-15  0.2000E+01
  -4.895  0.5525E-15  0.2000E+01
  -4.885  0.3924E-15  0.2000E+01
  -4.875  0.2782E-15  0.2000E+01
  -4.865  0.1969E-15  0.2000E+01
  -4.855  0.1391E-15  0.2000E+01
  -4.845  0.9814E-16  0.2000E+01
  -4.835  0.6911E-16  0.2000E+01
  -4.825  0.4858E-16  0.2000E+01
  -4.815  0.3409E-16  0.2000E+01
  -4.805  0.2389E-16  0.2000E+01
  -4.795  0.1671E-16  0.2000E+01
  -4.785  0.1166E-16  0.2000E+01
  -4.775  0.8131E-17  0.2000E+01
  -4.765  0.5658E-17  0.2000E+01
  -4.755  0.3930E-17  0.2000E+01
  -4.745  0.2726E-17  0.2000E+01
  -4.735  0.1887E-17  0.2000E+01
  -4.725  0.1304E-17  0.2000E+01
  -4.715  0.8998E-18  0.2000E+01
  -4.705  0.6198E-18  0.2000E+01
  -4.695  0.4262E-18  0.2000E+01
  -4.685  0.2925E-18  0.2000E+01
  -4.675  0.2005E-18  0.2000E+01
  -4.665  0.1371E-18  0.2000E+01
  -4.655  0.9366E-19  0.2000E+01
  -4.645  0.6386E-19  0.2000E+01
  -4.635  0.4346E-19  0.2000E+01
  -4.625  0.2953E-19  0.2000E+01
  -4.615  0.2003E-19  0.2000E+01
  -4.605  0.1357E-19  0.2000E+01
  -4.595  0.9170E-20  0.2000E+01
  -4.585  0.6189E-20  0.2000E+01
  -4.575  0.4169E-20  0.2000E+01
  -4.565  0.2804E-20  0.2000E+01
  -4.555  0.1883E-20  0.2000E+01
  -4.545  0.1262E-20  0.2000E+01
  -4.535  0.8444E-21  0.2000E+01
  -4.525  0.5641E-21  0.2000E+01
  -4.515  0.3762E-21  0.2000E+01
  -4.505  0.2504E-21  0.2000E+01
  -4.495  0.1664E-21  0.2000E+01
  -4.485  0.1104E-21  0.2000E+01
  -4.475  0.7313E-22  0.2000E+01
  -4.465  0.4836E-22  0.2000E+01
  -4.455  0.3192E-22  0.2000E+01
  -4.445  0.2103E-22  0.2000E+01
  -4.435  0.1384E-22  0.2000E+01
  -4.425  0.9086E-23  0.2000E+01
  -4.415  0.5957E-23  0.2000E+01
  -4.405  0.3898E-23  0.2000E+01
  -4.395  0.2547E-23  0.2000E+01
  -4.385  0.1661E-23  0.2000E+01
  -4.375  0.1082E-23  0.2000E+01
  -4.365  0.7032E-24  0.2000E+01
  -4.355  0.4563E-24  0.2000E+01
  -4.345  0.2956E-24  0.2000E+01
  -4.335  0.1912E-24  0.2000E+01
  -4.325  0.1234E-24  0.2000E+01
  -4.315  0.7954E-25  0.2000E+01
  -4.305  0.5117E-25  0.2000E+01
  -4.295  0.3287E-25  0.2000E+01
  -4.285  0.2108E-25  0.2000E+01
  -4.275  0.1349E-25  0.2000E+01
  -4.265  0.8621E-26  0.2000E+01
  -4.255  0.5500E-26  0.2000E+01
  -4.245  0.3503E-26  0.2000E+01
  -4.235  0.2227E-26  0.2000E+01
  -4.225  0.1414E-26  0.2000E+01
  -4.215  0.8966E-27  0.2000E+01
  -4.205  0.5683E-27  0.2000E+01
  -4.195  0.3607E-27  0.2000E+01
  -4.185  0.2304E-27  0.2000E+01
  -4.175  0.1498E-27  0.2000E+01
  -4.165  0.1017E-27  0.2000E+01
  -4.155  0.7589E-28  0.2000E+01
  -4.145  0.6670E-28  0.2000E+01
  -4.135  0.7206E-28  0.2000E+01
  -4.125  0.9293E-28  0.2000E+01
  -4.115  0.1335E-27  0.2000E+01
  -4.105  0.2021E-27  0.2000E+01
  -4.095  0.3127E-27  0.2000E+01
  -4.085  0.4875E-27  0.2000E+01
  -4.075  0.7616E-27  0.2000E+01
  -4.065  0.1190E-26  0.2000E+01
  -4.055  0.1857E-26  0.2000E+01
  -4.045  0.2893E-26  0.2000E+01
  -4.035  0.4500E-26  0.2000E+01
  -4.025  0.6989E-26  0.2000E+01
  -4.015  0.1084E-25  0.2000E+01
  -4.005  0.1677E-25  0.2000E+01
  -3.995  0.2592E-25  0.2000E+01
  -3.985  0.3998E-25  0.2000E+01
  -3.975  0.6157E-25  0.2000E+01
  -3.965  0.9466E-25  0.2000E+01
  -3.955  0.1453E-24  0.2000E+01
  -3.945  0.2226E-24  0.2000E+01
  -3.935  0.3405E-24  0.2000E+01
  -3.925  0.5199E-24  0.2000E+01
  -3.915  0.7926E-24  0.2000E+01
  -3.905  0.1206E-23  0.2000E+01
  -3.895  0.1833E-23  0.2000E+01
  -3.885  0.2779E-23  0.2000E+01
  -3.875  0.4208E-23  0.2000E+01
  -3.865  0.6361E-23  0.2000E+01
  -3.855  0.9598E-23  0.2000E+01
  -3.845  0.1446E-22  0.2000E+01
  -3.835  0.2175E-22  0.2000E+01
  -3.825  0.3265E-22  0.2000E+01
  -3.815  0.4893E-22  0.2000E+01
  -3.805  0.7321E-22  0.2000E+01
  -3.795  0.1094E-21  0.2000E+01
  -3.785  0.1631E-21  0.2000E+01
  -3.775  0.2428E-21  0.2000E+01
  -3.765  0.3608E-21  0.2000E+01
  -3.755  0.5353E-21  0.2000E+01
  -3.745  0.7929E-21  0.2000E+01
  -3.735  0.1172E-20  0.2000E+01
  -3.725  0.1731E-20  0.2000E+01
  -3.715  0.2550E-20  0.2000E+01
  -3.705  0.3752E-20  0.2000E+01
  -3.695  0.5510E-20  0.2000E+01
  -3.685  0.8079E-20  0.2000E+01
  -3.675  0.1183E-19  0.2000E+01
  -3.665  0.1728E-19  0.2000E+01
  -3.655  0.2521E-19  0.2000E+01
  -3.645  0.3671E-19  0.2000E+01
  -3.635  0.5337E-19  0.2000E+01
  -3.625  0.7746E-19  0.2000E+01
  -3.615  0.1122E-18  0.2000E+01
  -3.605  0.1623E-18  0.2000E+01
  -3.595  0.2344E-18  0.2000E+01
  -3.585  0.3380E-18  0.2000E+01
  -3.575  0.4864E-18  0.2000E+01
  -3.565  0.6989E-18  0.2000E+01
  -3.555  0.1002E-17  0.2000E+01
  -3.545  0.1435E-17  0.2000E+01
  -3.535  0.2052E-17  0.2000E+01
  -3.525  0.2928E-17  0.2000E+01
  -3.515  0.4172E-17  0.2000E+01
  -3.505  0.5933E-17  0.2000E+01
  -3.495  0.8425E-17  0.2000E+01
  -3.485  0.1194E-16  0.2000E+01
  -3.475  0.1690E-16  0.2000E+01
  -3.465  0.2387E-16  0.2000E+01
  -3.455  0.3367E-16  0.2000E+01
  -3.445  0.4741E-16  0.2000E+01
  -3.435  0.6664E-16  0.2000E+01
  -3.425  0.9351E-16  0.2000E+01
  -3.415  0.1310E-15  0.2000E+01
  -3.405  0.1832E-15  0.2000E+01
  -3.395  0.2558E-15  0.2000E+01
  -3.385  0.3565E-15  0.2000E+01
  -3.375  0.4961E-15  0.2000E+01
  -3.365  0.6891E-15  0.2000E+01
  -3.355  0.9556E-15  0.2000E+01
  -3.345  0.1323E-14  0.2000E+01
  -3.335  0.1829E-14  0.2000E+01
  -3.325  0.2523E-14  0.2000E+01
  -3.315  0.3476E-14  0.2000E+01
  -3.305  0.4780E-14  0.2000E+01
  -3.295  0.6562E-14  0.2000E+01
  -3.285  0.8994E-14  0.2000E+01
  -3.275  0.1231E-13  0.2000E+01
  -3.265  0.1681E-13  0.2000E+01
  -3.255  0.2292E-13  0.2000E+01
  -3.245  0.3121E-13  0.2000E+01
  -3.235  0.4241E-13  0.2000E+01
  -3.225  0.5755E-13  0.2000E+01
  -3.215  0.7795E-13  0.2000E+01
  -3.205  0.1054E-12  0.2000E+01
  -3.195  0.1423E-12  0.2000E+01
  -3.185  0.1918E-12  0.2000E+01
  -3.175  0.2581E-12  0.2000E+01
  -3.165  0.3467E-12  0.2000E+01
  -3.155  0.4649E-12  0.2000E+01
  -3.145  0.6224E-12  0.2000E+01
  -3.135  0.8318E-12  0.2000E+01
  -3.125  0.1110E-11  0.2000E+01
  -3.115  0.1478E-11  0.2000E+01
  -3.105  0.1966E-11  0.2000E+01
  -3.095  0.2610E-11  0.2000E+01
  -3.085  0.3459E-11  0.2000E+01
  -3.075  0.4577E-11  0.2000E+01
  -3.065  0.6047E-11  0.2000E+01
  -3.055  0.7974E-11  0.2000E+01
  -3.045  0.1050E-10  0.2000E+01
  -3.035  0.1380E-10  0.2000E+01
  -3.025  0.1811E-10  0.2000E+01
  -3.015  0.2372E-10  0.2000E+01
  -3.005  0.3102E-10  0.2000E+01
  -2.995  0.4050E-10  0.2000E+01
  -2.985  0.5279E-10  0.2000E+01
  -2.975  0.6869E-10  0.2000E+01
  -2.965  0.8924E-10  0.2000E+01
  -2.955  0.1157E-09  0.2000E+01
  -2.945  0.1499E-09  0.2000E+01
  -2.935  0.1937E-09  0.2000E+01
  -2.925  0.2500E-09  0.2000E+01
  -2.915  0.3221E-09  0.2000E+01
  -2.905  0.4143E-09  0.2000E+01
  -2.895  0.5319E-09  0.2000E+01
  -2.885  0.6819E-09  0.2000E+01
  -2.875  0.8727E-09  0.2000E+01
  -2.865  0.1115E-08  0.2000E+01
  -2.855  0.1422E-08  0.2000E+01
  -2.845  0.1811E-08  0.2000E+01
  -2.835  0.2303E-08  0.2000E+01
  -2.825  0.2923E-08  0.2000E+01
  -2.815  0.3704E-08  0.2000E+01
  -2.805  0.4686E-08  0.2000E+01
  -2.795  0.5918E-08  0.2000E+01
  -2.785  0.7462E-08  0.2000E+01
  -2.775  0.9394E-08  0.2000E+01
  -2.765  0.1181E-07  0.2000E+01
  -2.755  0.1481E-07  0.2000E+01
  -2.745  0.1855E-07  0.2000E+01
  -2.735  0.2320E-07  0.2000E+01
  -2.725  0.2897E-07  0.2000E+01
  -2.715  0.3611E-07  0.2000E+01
  -2.705  0.4493E-07  0.2000E+01
  -2.695  0.5582E-07  0.2000E+01
  -2.685  0.6923E-07  0.2000E+01
  -2.675  0.8573E-07  0.2000E+01
  -2.665  0.1060E-06  0.2000E+01
  -2.655  0.1308E-06  0.2000E+01
  -2.645  0.1612E-06  0.2000E+01
  -2.635  0.1983E-06  0.2000E+01
  -2.625  0.2435E-06  0.2000E+01
  -2.615  0.2986E-06  0.2000E+01
  -2.605  0.3655E-06  0.2000E+01
  -2.595  0.4467E-06  0.2000E+01
  -2.585  0.5451E-06  0.2000E+01
  -2.575  0.6640E-06  0.2000E+01
  -2.565  0.8076E-06  0.2000E+01
  -2.555  0.9806E-06  0.2000E+01
  -2.545  0.1189E-05  0.2000E+01
  -2.535  0.1439E-05  0.2000E+01
  -2.525  0.1738E-05  0.2000E+01
  -2.515  0.2097E-05  0.2000E+01
  -2.505  0.2526E-05  0.2000E+01
  -2.495  0.3038E-05  0.2000E+01
  -2.485  0.3647E-05  0.2000E+01
  -2.475  0.4371E-05  0.2000E+01
  -2.465  0.5231E-05  0.2000E+01
  -2.455  0.6250E-05  0.2000E+01
  -2.445  0.7455E-05  0.2000E+01
  -2.435  0.8878E-05  0.2000E+01
  -2.425  0.1056E-04  0.2000E+01
  -2.415  0.1253E-04  0.2000E+01
  -2.405  0.1485E-04  0.2000E+01
  -2.395  0.1758E-04  0.2000E+01
  -2.385  0.2076E-04  0.2000E+01
  -2.375  0.2449E-04  0.2000E+01
  -2.365  0.2884E-04  0.2000E+01
  -2.355  0.3392E-04  0.2000E+01
  -2.345  0.3982E-04  0.2000E+01
  -2.335  0.4667E-04  0.2000E+01
  -2.325  0.5461E-04  0.2000E+01
  -2.315  0.6381E-04  0.2000E+01
  -2.305  0.7444E-04  0.2000E+01
  -2.295  0.8670E-04  0.2000E+01
  -2.285  0.1008E-03  0.2000E+01
  -2.275  0.1171E-03  0.2000E+01
  -2.265  0.1357E-03  0.2000E+01
  -2.255  0.1571E-03  0.2000E+01
  -2.245  0.1815E-03  0.2000E+01
  -2.235  0.2094E-03  0.2000E+01
  -2.225  0.2413E-03  0.2000E+01
  -2.215  0.2775E-03  0.2000E+01
  -2.205  0.3187E-03  0.2000E+01
  -2.195  0.3655E-03  0.2000E+01
  -2.185  0.4185E-03  0.2000E+01
  -2.175  0.4784E-03  0.2000E+01
  -2.165  0.5460E-03  0.2000E+01
  -2.155  0.6223E-03  0.2000E+01
  -2.145  0.7081E-03  0.2000E+01
  -2.135  0.8046E-03  0.2000E+01
  -2.125  0.9128E-03  0.2000E+01
  -2.115  0.1034E-02  0.2000E+01
  -2.105  0.1169E-02  0.2000E+01
  -2.095  0.1321E-02  0.2000E+01
  -2.085  0.1489E-02  0.2000E+01
  -2.075  0.1677E-02  0.2000E+01
  -2.065  0.1885E-02  0.2000E+01
  -2.055  0.2116E-02  0.2000E+01
  -2.045  0.2372E-02  0.2000E+01
  -2.035  0.2655E-02  0.2000E+01
  -2.025  0.2968E-02  0.2000E+01
  -2.015  0.3312E-02  0.2000E+01
  -2.005  0.3691E-02  0.2000E+01
  -1.995  0.4107E-02  0.2000E+01
  -1.985  0.4563E-02  0.2000E+01
  -1.975  0.5063E-02  0.2000E+01
  -1.965  0.5609E-02  0.2001E+01
  -1.955  0.6205E-02  0.2001E+01
  -1.945  0.6855E-02  0.2001E+01
  -1.935  0.7562E-02  0.2001E+01
  -1.925  0.8331E-02  0.2001E+01
  -1.915  0.9164E-02  0.2001E+01
  -1.905  0.1007E-01  0.2001E+01
  -1.895  0.1104E-01  0.2001E+01
  -1.885  0.1210E-01  0.2001E+01
  -1.875  0.1323E-01  0.2001E+01
  -1.865  0.1446E-01  0.2002E+01
  -1.855  0.1577E-01  0.2002E+01
  -1.845  0.1718E-01  0.2002E+01
  -1.835  0.1869E-01  0.2002E+01
  -1.825  0.2031E-01  0.2002E+01
  -1.815  0.2204E-01  0.2002E+01
  -1.805  0.2388E-01  0.2003E+01
  -1.795  0.2584E-01  0.2003E+01
  -1.785  0.2793E-01  0.2003E+01
  -1.775  0.3015E-01  0.2004E+01
  -1.765  0.3250E-01  0.2004E+01
  -1.755  0.3499E-01  0.2004E+01
  -1.745  0.3762E-01  0.2005E+01
  -1.735  0.4041E-01  0.2005E+01
  -1.725  0.4334E-01  0.2005E+01
  -1.715  0.4643E-01  0.2006E+01
  -1.705  0.4967E-01  0.2006E+01
  -1.695  0.5308E-01  0.2007E+01
  -1.685  0.5666E-01  0.2007E+01
  -1.675  0.6041E-01  0.2008E+01
  -1.665  0.6433E-01  0.2009E+01
  -1.655  0.6842E-01  0.2009E+01
  -1.645  0.7269E-01  0.2010E+01
  -1.635  0.7715E-01  0.2011E+01
  -1.625  0.8178E-01  0.2012E+01
  -1.615  0.8660E-01  0.2013E+01
  -1.605  0.9160E-01  0.2014E+01
  -1.595  0.9679E-01  0.2014E+01
  -1.585  0.1022E+00  0.2015E+01
  -1.575  0.1077E+00  0.2017E+01
  -1.565  0.1135E+00  0.2018E+01
  -1.555  0.1194E+00  0.2019E+01
  -1.545  0.1255E+00  0.2020E+01
  -1.535  0.1318E+00  0.2021E+01
  -1.525  0.1383E+00  0.2023E+01
  -1.515  0.1450E+00  0.2024E+01
  -1.505  0.1519E+00  0.2026E+01
  -1.495  0.1590E+00  0.2027E+01
  -1.485  0.1662E+00  0.2029E+01
  -1.475  0.1736E+00  0.2031E+01
  -1.465  0.1813E+00  0.2033E+01
  -1.455  0.1891E+00  0.2035E+01
  -1.445  0.1970E+00  0.2036E+01
  -1.435  0.2052E+00  0.2039E+01
  -1.425  0.2136E+00  0.2041E+01
  -1.415  0.2221E+00  0.2043E+01
  -1.405  0.2308E+00  0.2045E+01
  -1.395  0.2397E+00  0.2048E+01
  -1.385  0.2488E+00  0.2050E+01
  -1.375  0.2581E+00  0.2053E+01
  -1.365  0.2676E+00  0.2055E+01
  -1.355  0.2772E+00  0.2058E+01
  -1.345  0.2871E+00  0.2061E+01
  -1.335  0.2971E+00  0.2064E+01
  -1.325  0.3074E+00  0.2067E+01
  -1.315  0.3179E+00  0.2070E+01
  -1.305  0.3286E+00  0.2074E+01
  -1.295  0.3395E+00  0.2077E+01
  -1.285  0.3506E+00  0.2080E+01
  -1.275  0.3620E+00  0.2084E+01
  -1.265  0.3736E+00  0.2088E+01
  -1.255  0.3854E+00  0.2092E+01
  -1.245  0.3975E+00  0.2096E+01
  -1.235  0.4098E+00  0.2100E+01
  -1.225  0.4225E+00  0.2104E+01
  -1.215  0.4354E+00  0.2108E+01
  -1.205  0.4486E+00  0.2113E+01
  -1.195  0.4620E+00  0.2117E+01
  -1.185  0.4758E+00  0.2122E+01
  -1.175  0.4899E+00  0.2127E+01
  -1.165  0.5044E+00  0.2132E+01
  -1.155  0.5191E+00  0.2137E+01
  -1.145  0.5342E+00  0.2143E+01
  -1.135  0.5496E+00  0.2148E+01
  -1.125  0.5654E+00  0.2154E+01
  -1.115  0.5815E+00  0.2160E+01
  -1.105  0.5980E+00  0.2166E+01
  -1.095  0.6149E+00  0.2172E+01
  -1.085  0.6321E+00  0.2178E+01
  -1.075  0.6498E+00  0.2185E+01
  -1.065  0.6677E+00  0.2191E+01
  -1.055  0.6861E+00  0.2198E+01
  -1.045  0.7048E+00  0.2205E+01
  -1.035  0.7239E+00  0.2212E+01
  -1.025  0.7433E+00  0.2220E+01
  -1.015  0.7631E+00  0.2227E+01
  -1.005  0.7833E+00  0.2235E+01
  -0.995  0.8037E+00  0.2243E+01
  -0.985  0.8245E+00  0.2252E+01
  -0.975  0.8456E+00  0.2260E+01
  -0.965  0.8669E+00  0.2269E+01
  -0.955  0.8885E+00  0.2278E+01
  -0.945  0.9103E+00  0.2287E+01
  -0.935  0.9323E+00  0.2296E+01
  -0.925  0.9545E+00  0.2306E+01
  -0.915  0.9769E+00  0.2315E+01
  -0.905  0.9993E+00  0.2325E+01
  -0.895  0.1022E+01  0.2335E+01
  -0.885  0.1044E+01  0.2346E+01
  -0.875  0.1067E+01  0.2357E+01
  -0.865  0.1089E+01  0.2367E+01
  -0.855  0.1112E+01  0.2379E+01
  -0.845  0.1134E+01  0.2390E+01
  -0.835  0.1156E+01  0.2402E+01
  -0.825  0.1178E+01  0.2413E+01
  -0.815  0.1199E+01  0.2425E+01
  -0.805  0.1220E+01  0.2437E+01
  -0.795  0.1241E+01  0.2450E+01
  -0.785  0.1261E+01  0.2462E+01
  -0.775  0.1281E+01  0.2475E+01
  -0.765  0.1300E+01  0.2488E+01
  -0.755  0.1318E+01  0.2501E+01
  -0.745  0.1336E+01  0.2515E+01
  -0.735  0.1353E+01  0.2528E+01
  -0.725  0.1369E+01  0.2542E+01
  -0.715  0.1385E+01  0.2556E+01
  -0.705  0.1399E+01  0.2570E+01
  -0.695  0.1413E+01  0.2584E+01
  -0.685  0.1425E+01  0.2598E+01
  -0.675  0.1437E+01  0.2613E+01
  -0.665  0.1447E+01  0.2627E+01
  -0.655  0.1457E+01  0.2642E+01
  -0.645  0.1465E+01  0.2656E+01
  -0.635  0.1472E+01  0.2671E+01
  -0.625  0.1477E+01  0.2686E+01
  -0.615  0.1482E+01  0.2701E+01
  -0.605  0.1485E+01  0.2716E+01
  -0.595  0.1487E+01  0.2730E+01
  -0.585  0.1488E+01  0.2745E+01
  -0.575  0.1488E+01  0.2760E+01
  -0.565  0.1486E+01  0.2775E+01
  -0.555  0.1483E+01  0.2790E+01
  -0.545  0.1479E+01  0.2805E+01
  -0.535  0.1474E+01  0.2819E+01
  -0.525  0.1467E+01  0.2834E+01
  -0.515  0.1459E+01  0.2849E+01
  -0.505  0.1450E+01  0.2863E+01
  -0.495  0.1440E+01  0.2878E+01
  -0.485  0.1429E+01  0.2892E+01
  -0.475  0.1417E+01  0.2906E+01
  -0.465  0.1404E+01  0.2920E+01
  -0.455  0.1390E+01  0.2934E+01
  -0.445  0.1375E+01  0.2948E+01
  -0.435  0.1359E+01  0.2961E+01
  -0.425  0.1342E+01  0.2975E+01
  -0.415  0.1325E+01  0.2988E+01
  -0.405  0.1307E+01  0.3001E+01
  -0.395  0.1288E+01  0.3014E+01
  -0.385  0.1269E+01  0.3027E+01
  -0.375  0.1249E+01  0.3039E+01
  -0.365  0.1229E+01  0.3051E+01
  -0.355  0.1208E+01  0.3063E+01
  -0.345  0.1187E+01  0.3075E+01
  -0.335  0.1166E+01  0.3087E+01
  -0.325  0.1145E+01  0.3098E+01
  -0.315  0.1123E+01  0.3110E+01
  -0.305  0.1101E+01  0.3121E+01
  -0.295  0.1080E+01  0.3131E+01
  -0.285  0.1058E+01  0.3142E+01
  -0.275  0.1036E+01  0.3152E+01
  -0.265  0.1015E+01  0.3163E+01
  -0.255  0.9935E+00  0.3172E+01
  -0.245  0.9724E+00  0.3182E+01
  -0.235  0.9514E+00  0.3192E+01
  -0.225  0.9308E+00  0.3201E+01
  -0.215  0.9104E+00  0.3210E+01
  -0.205  0.8904E+00  0.3219E+01
  -0.195  0.8707E+00  0.3228E+01
  -0.185  0.8514E+00  0.3236E+01
  -0.175  0.8325E+00  0.3245E+01
  -0.165  0.8140E+00  0.3253E+01
  -0.155  0.7960E+00  0.3261E+01
  -0.145  0.7784E+00  0.3268E+01
  -0.135  0.7613E+00  0.3276E+01
  -0.125  0.7447E+00  0.3284E+01
  -0.115  0.7285E+00  0.3291E+01
  -0.105  0.7129E+00  0.3298E+01
  -0.095  0.6977E+00  0.3305E+01
  -0.085  0.6830E+00  0.3312E+01
  -0.075  0.6688E+00  0.3318E+01
  -0.065  0.6550E+00  0.3325E+01
  -0.055  0.6418E+00  0.3331E+01
  -0.045  0.6290E+00  0.3338E+01
  -0.035  0.6166E+00  0.3344E+01
  -0.025  0.6048E+00  0.3350E+01
  -0.015  0.5933E+00  0.3356E+01
  -0.005  0.5823E+00  0.3362E+01
   0.005  0.5718E+00  0.3367E+01
   0.015  0.5616E+00  0.3373E+01
   0.025  0.5518E+00  0.3379E+01
   0.035  0.5425E+00  0.3384E+01
   0.045  0.5335E+00  0.3389E+01
   0.055  0.5249E+00  0.3395E+01
   0.065  0.5166E+00  0.3400E+01
   0.075  0.5087E+00  0.3405E+01
   0.085  0.5011E+00  0.3410E+01
   0.095  0.4938E+00  0.3415E+01
   0.105  0.4869E+00  0.3420E+01
   0.115  0.4803E+00  0.3424E+01
   0.125  0.4739E+00  0.3429E+01
   0.135  0.4678E+00  0.3434E+01
   0.145  0.4620E+00  0.3438E+01
   0.155  0.4565E+00  0.3443E+01
   0.165  0.4513E+00  0.3448E+01
   0.175  0.4463E+00  0.3452E+01
   0.185  0.4415E+00  0.3456E+01
   0.195  0.4370E+00  0.3461E+01
   0.205  0.4328E+00  0.3465E+01
   0.215  0.4288E+00  0.3469E+01
   0.225  0.4250E+00  0.3474E+01
   0.235  0.4215E+00  0.3478E+01
   0.245  0.4182E+00  0.3482E+01
   0.255  0.4151E+00  0.3486E+01
   0.265  0.4123E+00  0.3490E+01
   0.275  0.4097E+00  0.3494E+01
   0.285  0.4074E+00  0.3498E+01
   0.295  0.4052E+00  0.3503E+01
   0.305  0.4034E+00  0.3507E+01
   0.315  0.4017E+00  0.3511E+01
   0.325  0.4004E+00  0.3515E+01
   0.335  0.3992E+00  0.3519E+01
   0.345  0.3983E+00  0.3523E+01
   0.355  0.3977E+00  0.3527E+01
   0.365  0.3974E+00  0.3531E+01
   0.375  0.3973E+00  0.3534E+01
   0.385  0.3974E+00  0.3538E+01
   0.395  0.3979E+00  0.3542E+01
   0.405  0.3986E+00  0.3546E+01
   0.415  0.3996E+00  0.3550E+01
   0.425  0.4009E+00  0.3554E+01
   0.435  0.4024E+00  0.3558E+01
   0.445  0.4043E+00  0.3563E+01
   0.455  0.4064E+00  0.3567E+01
   0.465  0.4089E+00  0.3571E+01
   0.475  0.4116E+00  0.3575E+01
   0.485  0.4146E+00  0.3579E+01
   0.495  0.4179E+00  0.3583E+01
   0.505  0.4215E+00  0.3587E+01
   0.515  0.4255E+00  0.3592E+01
   0.525  0.4297E+00  0.3596E+01
   0.535  0.4342E+00  0.3600E+01
   0.545  0.4390E+00  0.3605E+01
   0.555  0.4441E+00  0.3609E+01
   0.565  0.4494E+00  0.3614E+01
   0.575  0.4551E+00  0.3618E+01
   0.585  0.4610E+00  0.3623E+01
   0.595  0.4673E+00  0.3627E+01
   0.605  0.4737E+00  0.3632E+01
   0.615  0.4805E+00  0.3637E+01
   0.625  0.4875E+00  0.3642E+01
   0.635  0.4947E+00  0.3647E+01
   0.645  0.5021E+00  0.3652E+01
   0.655  0.5098E+00  0.3657E+01
   0.665  0.5177E+00  0.3662E+01
   0.675  0.5259E+00  0.3667E+01
   0.685  0.5342E+00  0.3673E+01
   0.695  0.5426E+00  0.3678E+01
   0.705  0.5513E+00  0.3684E+01
   0.715  0.5601E+00  0.3689E+01
   0.725  0.5690E+00  0.3695E+01
   0.735  0.5781E+00  0.3701E+01
   0.745  0.5873E+00  0.3707E+01
   0.755  0.5965E+00  0.3712E+01
   0.765  0.6059E+00  0.3719E+01
   0.775  0.6153E+00  0.3725E+01
   0.785  0.6248E+00  0.3731E+01
   0.795  0.6343E+00  0.3737E+01
   0.805  0.6438E+00  0.3744E+01
   0.815  0.6533E+00  0.3750E+01
   0.825  0.6628E+00  0.3757E+01
   0.835  0.6722E+00  0.3764E+01
   0.845  0.6816E+00  0.3770E+01
   0.855  0.6909E+00  0.3777E+01
   0.865  0.7002E+00  0.3784E+01
   0.875  0.7093E+00  0.3791E+01
   0.885  0.7183E+00  0.3799E+01
   0.895  0.7272E+00  0.3806E+01
   0.905  0.7360E+00  0.3813E+01
   0.915  0.7446E+00  0.3821E+01
   0.925  0.7530E+00  0.3828E+01
   0.935  0.7613E+00  0.3836E+01
   0.945  0.7693E+00  0.3844E+01
   0.955  0.7771E+00  0.3851E+01
   0.965  0.7847E+00  0.3859E+01
   0.975  0.7921E+00  0.3867E+01
   0.985  0.7993E+00  0.3875E+01
   0.995  0.8062E+00  0.3883E+01
   1.005  0.8129E+00  0.3891E+01
   1.015  0.8193E+00  0.3899E+01
   1.025  0.8254E+00  0.3908E+01
   1.035  0.8313E+00  0.3916E+01
   1.045  0.8369E+00  0.3924E+01
   1.055  0.8423E+00  0.3933E+01
   1.065  0.8474E+00  0.3941E+01
   1.075  0.8522E+00  0.3950E+01
   1.085  0.8568E+00  0.3958E+01
   1.095  0.8611E+00  0.3967E+01
   1.105  0.8652E+00  0.3976E+01
   1.115  0.8690E+00  0.3984E+01
   1.125  0.8726E+00  0.3993E+01
   1.135  0.8759E+00  0.4002E+01
   1.145  0.8790E+00  0.4011E+01
   1.155  0.8819E+00  0.4019E+01
   1.165  0.8846E+00  0.4028E+01
   1.175  0.8871E+00  0.4037E+01
   1.185  0.8894E+00  0.4046E+01
   1.195  0.8915E+00  0.4055E+01
   1.205  0.8935E+00  0.4064E+01
   1.215  0.8953E+00  0.4073E+01
   1.225  0.8970E+00  0.4082E+01
   1.235  0.8985E+00  0.4091E+01
   1.245  0.9000E+00  0.4100E+01
   1.255  0.9013E+00  0.4109E+01
   1.265  0.9025E+00  0.4118E+01
   1.275  0.9037E+00  0.4127E+01
   1.285  0.9048E+00  0.4136E+01
   1.295  0.9058E+00  0.4145E+01
   1.305  0.9068E+00  0.4154E+01
   1.315  0.9078E+00  0.4163E+01
   1.325  0.9087E+00  0.4172E+01
   1.335  0.9097E+00  0.4181E+01
   1.345  0.9106E+00  0.4190E+01
   1.355  0.9116E+00  0.4200E+01
   1.365  0.9125E+00  0.4209E+01
   1.375  0.9135E+00  0.4218E+01
   1.385  0.9146E+00  0.4227E+01
   1.395  0.9156E+00  0.4236E+01
   1.405  0.9168E+00  0.4245E+01
   1.415  0.9180E+00  0.4254E+01
   1.425  0.9192E+00  0.4264E+01
   1.435  0.9205E+00  0.4273E+01
   1.445  0.9219E+00  0.4282E+01
   1.455  0.9234E+00  0.4291E+01
   1.465  0.9250E+00  0.4301E+01
   1.475  0.9266E+00  0.4310E+01
   1.485  0.9283E+00  0.4319E+01
   1.495  0.9301E+00  0.4328E+01
   1.505  0.9320E+00  0.4338E+01
   1.515  0.9340E+00  0.4347E+01
   1.525  0.9361E+00  0.4356E+01
   1.535  0.9383E+00  0.4366E+01
   1.545  0.9406E+00  0.4375E+01
   1.555  0.9430E+00  0.4385E+01
   1.565  0.9455E+00  0.4394E+01
   1.575  0.9481E+00  0.4404E+01
   1.585  0.9507E+00  0.4413E+01
   1.595  0.9535E+00  0.4423E+01
   1.605  0.9564E+00  0.4432E+01
   1.615  0.9594E+00  0.4442E+01
   1.625  0.9624E+00  0.4451E+01
   1.635  0.9656E+00  0.4461E+01
   1.645  0.9689E+00  0.4471E+01
   1.655  0.9722E+00  0.4480E+01
   1.665  0.9757E+00  0.4490E+01
   1.675  0.9793E+00  0.4500E+01
   1.685  0.9830E+00  0.4510E+01
   1.695  0.9867E+00  0.4520E+01
   1.705  0.9906E+00  0.4530E+01
   1.715  0.9946E+00  0.4540E+01
   1.725  0.9987E+00  0.4550E+01
   1.735  0.1003E+01  0.4560E+01
   1.745  0.1007E+01  0.4570E+01
   1.755  0.1012E+01  0.4580E+01
   1.765  0.1016E+01  0.4590E+01
   1.775  0.1021E+01  0.4600E+01
   1.785  0.1025E+01  0.4610E+01
   1.795  0.1030E+01  0.4621E+01
   1.805  0.1035E+01  0.4631E+01
   1.815  0.1040E+01  0.4641E+01
   1.825  0.1045E+01  0.4652E+01
   1.835  0.1051E+01  0.4662E+01
   1.845  0.1056E+01  0.4673E+01
   1.855  0.1062E+01  0.4684E+01
   1.865  0.1067E+01  0.4694E+01
   1.875  0.1073E+01  0.4705E+01
   1.885  0.1079E+01  0.4716E+01
   1.895  0.1085E+01  0.4727E+01
   1.905  0.1091E+01  0.4738E+01
   1.915  0.1097E+01  0.4748E+01
   1.925  0.1104E+01  0.4760E+01
   1.935  0.1110E+01  0.4771E+01
   1.945  0.1117E+01  0.4782E+01
   1.955  0.1123E+01  0.4793E+01
   1.965  0.1130E+01  0.4804E+01
   1.975  0.1137E+01  0.4816E+01
   1.985  0.1144E+01  0.4827E+01
   1.995  0.1151E+01  0.4839E+01
   2.005  0.1158E+01  0.4850E+01
   2.015  0.1165E+01  0.4862E+01
   2.025  0.1173E+01  0.4874E+01
   2.035  0.1180E+01  0.4885E+01
   2.045  0.1187E+01  0.4897E+01
   2.055  0.1195E+01  0.4909E+01
   2.065  0.1202E+01  0.4921E+01
   2.075  0.1210E+01  0.4933E+01
   2.085  0.1217E+01  0.4946E+01
   2.095  0.1225E+01  0.4958E+01
   2.105  0.1233E+01  0.4970E+01
   2.115  0.1240E+01  0.4982E+01
   2.125  0.1248E+01  0.4995E+01
   2.135  0.1255E+01  0.5008E+01
   2.145  0.1263E+01  0.5020E+01
   2.155  0.1270E+01  0.5033E+01
   2.165  0.1277E+01  0.5046E+01
   2.175  0.1285E+01  0.5058E+01
   2.185  0.1292E+01  0.5071E+01
   2.195  0.1299E+01  0.5084E+01
   2.205  0.1306E+01  0.5097E+01
   2.215  0.1313E+01  0.5111E+01
   2.225  0.1319E+01  0.5124E+01
   2.235  0.1326E+01  0.5137E+01
   2.245  0.1332E+01  0.5150E+01
   2.255  0.1338E+01  0.5164E+01
   2.265  0.1345E+01  0.5177E+01
   2.275  0.1350E+01  0.5191E+01
   2.285  0.1356E+01  0.5204E+01
   2.295  0.1362E+01  0.5218E+01
   2.305  0.1367E+01  0.5232E+01
   2.315  0.1372E+01  0.5245E+01
   2.325  0.1377E+01  0.5259E+01
   2.335  0.1382E+01  0.5273E+01
   2.345  0.1386E+01  0.5287E+01
   2.355  0.1390E+01  0.5301E+01
   2.365  0.1394E+01  0.5315E+01
   2.375  0.1398E+01  0.5329E+01
   2.385  0.1402E+01  0.5343E+01
   2.395  0.1405E+01  0.5357E+01
   2.405  0.1408E+01  0.5371E+01
   2.415  0.1411E+01  0.5385E+01
   2.425  0.1414E+01  0.5399E+01
   2.435  0.1417E+01  0.5413E+01
   2.445  0.1419E+01  0.5427E+01
   2.455  0.1421E+01  0.5441E+01
   2.465  0.1424E+01  0.5456E+01
   2.475  0.1425E+01  0.5470E+01
   2.485  0.1427E+01  0.5484E+01
   2.495  0.1429E+01  0.5499E+01
   2.505  0.1430E+01  0.5513E+01
   2.515  0.1431E+01  0.5527E+01
   2.525  0.1433E+01  0.5541E+01
   2.535  0.1434E+01  0.5556E+01
   2.545  0.1435E+01  0.5570E+01
   2.555  0.1435E+01  0.5585E+01
   2.565  0.1436E+01  0.5599E+01
   2.575  0.1437E+01  0.5613E+01
   2.585  0.1437E+01  0.5628E+01
   2.595  0.1438E+01  0.5642E+01
   2.605  0.1438E+01  0.5656E+01
   2.615  0.1439E+01  0.5671E+01
   2.625  0.1439E+01  0.5685E+01
   2.635  0.1439E+01  0.5700E+01
   2.645  0.1440E+01  0.5714E+01
   2.655  0.1440E+01  0.5728E+01
   2.665  0.1440E+01  0.5743E+01
   2.675  0.1440E+01  0.5757E+01
   2.685  0.1440E+01  0.5772E+01
   2.695  0.1440E+01  0.5786E+01
   2.705  0.1440E+01  0.5800E+01
   2.715  0.1440E+01  0.5815E+01
   2.725  0.1440E+01  0.5829E+01
   2.735  0.1440E+01  0.5844E+01
   2.745  0.1440E+01  0.5858E+01
   2.755  0.1440E+01  0.5872E+01
   2.765  0.1440E+01  0.5887E+01
   2.775  0.1440E+01  0.5901E+01
   2.785  0.1440E+01  0.5916E+01
   2.795  0.1440E+01  0.5930E+01
   2.805  0.1439E+01  0.5944E+01
   2.815  0.1439E+01  0.5959E+01
   2.825  0.1439E+01  0.5973E+01
   2.835  0.1438E+01  0.5988E+01
   2.845  0.1438E+01  0.6002E+01
   2.855  0.1437E+01  0.6016E+01
   2.865  0.1437E+01  0.6031E+01
   2.875  0.1436E+01  0.6045E+01
   2.885  0.1436E+01  0.6059E+01
   2.895  0.1435E+01  0.6074E+01
   2.905  0.1434E+01  0.6088E+01
   2.915  0.1434E+01  0.6102E+01
   2.925  0.1433E+01  0.6117E+01
   2.935  0.1432E+01  0.6131E+01
   2.945  0.1431E+01  0.6145E+01
   2.955  0.1430E+01  0.6160E+01
   2.965  0.1429E+01  0.6174E+01
   2.975  0.1428E+01  0.6188E+01
   2.985  0.1427E+01  0.6203E+01
   2.995  0.1426E+01  0.6217E+01
   3.005  0.1425E+01  0.6231E+01
   3.015  0.1424E+01  0.6245E+01
   3.025  0.1423E+01  0.6260E+01
   3.035  0.1422E+01  0.6274E+01
   3.045  0.1421E+01  0.6288E+01
   3.055  0.1420E+01  0.6302E+01
   3.065  0.1419E+01  0.6316E+01
   3.075  0.1418E+01  0.6331E+01
   3.085  0.1417E+01  0.6345E+01
   3.095  0.1416E+01  0.6359E+01
   3.105  0.1415E+01  0.6373E+01
   3.115  0.1414E+01  0.6387E+01
   3.125  0.1413E+01  0.6401E+01
   3.135  0.1412E+01  0.6415E+01
   3.145  0.1412E+01  0.6429E+01
   3.155  0.1411E+01  0.6444E+01
   3.165  0.1410E+01  0.6458E+01
   3.175  0.1409E+01  0.6472E+01
   3.185  0.1409E+01  0.6486E+01
   3.195  0.1408E+01  0.6500E+01
   3.205  0.1407E+01  0.6514E+01
   3.215  0.1407E+01  0.6528E+01
   3.225  0.1406E+01  0.6542E+01
   3.235  0.1405E+01  0.6556E+01
   3.245  0.1405E+01  0.6570E+01
   3.255  0.1404E+01  0.6584E+01
   3.265  0.1404E+01  0.6598E+01
   3.275  0.1403E+01  0.6612E+01
   3.285  0.1403E+01  0.6626E+01
   3.295  0.1402E+01  0.6640E+01
   3.305  0.1402E+01  0.6654E+01
   3.315  0.1401E+01  0.6668E+01
   3.325  0.1401E+01  0.6682E+01
   3.335  0.1400E+01  0.6696E+01
   3.345  0.1399E+01  0.6710E+01
   3.355  0.1399E+01  0.6724E+01
   3.365  0.1398E+01  0.6738E+01
   3.375  0.1397E+01  0.6752E+01
   3.385  0.1396E+01  0.6766E+01
   3.395  0.1395E+01  0.6780E+01
   3.405  0.1394E+01  0.6794E+01
   3.415  0.1393E+01  0.6808E+01
   3.425  0.1392E+01  0.6822E+01
   3.435  0.1390E+01  0.6836E+01
   3.445  0.1389E+01  0.6850E+01
   3.455  0.1387E+01  0.6864E+01
   3.465  0.1386E+01  0.6878E+01
   3.475  0.1384E+01  0.6891E+01
   3.485  0.1382E+01  0.6905E+01
   3.495  0.1380E+01  0.6919E+01
   3.505  0.1378E+01  0.6933E+01
   3.515  0.1375E+01  0.6947E+01
   3.525  0.1373E+01  0.6960E+01
   3.535  0.1370E+01  0.6974E+01
   3.545  0.1367E+01  0.6988E+01
   3.555  0.1364E+01  0.7001E+01
   3.565  0.1360E+01  0.7015E+01
   3.575  0.1357E+01  0.7028E+01
   3.585  0.1353E+01  0.7042E+01
   3.595  0.1349E+01  0.7056E+01
   3.605  0.1345E+01  0.7069E+01
   3.615  0.1341E+01  0.7082E+01
   3.625  0.1336E+01  0.7096E+01
   3.635  0.1331E+01  0.7109E+01
   3.645  0.1326E+01  0.7122E+01
   3.655  0.1321E+01  0.7136E+01
   3.665  0.1315E+01  0.7149E+01
   3.675  0.1309E+01  0.7162E+01
   3.685  0.1303E+01  0.7175E+01
   3.695  0.1297E+01  0.7188E+01
   3.705  0.1290E+01  0.7201E+01
   3.715  0.1284E+01  0.7213E+01
   3.725  0.1277E+01  0.7226E+01
   3.735  0.1269E+01  0.7239E+01
   3.745  0.1262E+01  0.7252E+01
   3.755  0.1254E+01  0.7264E+01
   3.765  0.1246E+01  0.7277E+01
   3.775  0.1237E+01  0.7289E+01
   3.785  0.1229E+01  0.7301E+01
   3.795  0.1220E+01  0.7313E+01
   3.805  0.1211E+01  0.7326E+01
   3.815  0.1202E+01  0.7338E+01
   3.825  0.1192E+01  0.7349E+01
   3.835  0.1182E+01  0.7361E+01
   3.845  0.1172E+01  0.7373E+01
   3.855  0.1162E+01  0.7385E+01
   3.865  0.1152E+01  0.7396E+01
   3.875  0.1141E+01  0.7408E+01
   3.885  0.1131E+01  0.7419E+01
   3.895  0.1120E+01  0.7430E+01
   3.905  0.1109E+01  0.7441E+01
   3.915  0.1098E+01  0.7452E+01
   3.925  0.1086E+01  0.7463E+01
   3.935  0.1075E+01  0.7474E+01
   3.945  0.1063E+01  0.7484E+01
   3.955  0.1052E+01  0.7495E+01
   3.965  0.1040E+01  0.7505E+01
   3.975  0.1028E+01  0.7516E+01
   3.985  0.1016E+01  0.7526E+01
   3.995  0.1004E+01  0.7536E+01
   4.005  0.9918E+00  0.7546E+01
   4.015  0.9796E+00  0.7555E+01
   4.025  0.9674E+00  0.7565E+01
   4.035  0.9552E+00  0.7575E+01
   4.045  0.9430E+00  0.7584E+01
   4.055  0.9307E+00  0.7593E+01
   4.065  0.9185E+00  0.7603E+01
   4.075  0.9062E+00  0.7612E+01
   4.085  0.8939E+00  0.7621E+01
   4.095  0.8817E+00  0.7629E+01
   4.105  0.8695E+00  0.7638E+01
   4.115  0.8573E+00  0.7647E+01
   4.125  0.8452E+00  0.7655E+01
   4.135  0.8331E+00  0.7664E+01
   4.145  0.8210E+00  0.7672E+01
   4.155  0.8090E+00  0.7680E+01
   4.165  0.7970E+00  0.7688E+01
   4.175  0.7851E+00  0.7696E+01
   4.185  0.7733E+00  0.7703E+01
   4.195  0.7615E+00  0.7711E+01
   4.205  0.7498E+00  0.7718E+01
   4.215  0.7381E+00  0.7726E+01
   4.225  0.7266E+00  0.7733E+01
   4.235  0.7151E+00  0.7740E+01
   4.245  0.7036E+00  0.7747E+01
   4.255  0.6922E+00  0.7754E+01
   4.265  0.6809E+00  0.7761E+01
   4.275  0.6697E+00  0.7768E+01
   4.285  0.6585E+00  0.7774E+01
   4.295  0.6474E+00  0.7781E+01
   4.305  0.6363E+00  0.7787E+01
   4.315  0.6254E+00  0.7793E+01
   4.325  0.6144E+00  0.7800E+01
   4.335  0.6036E+00  0.7806E+01
   4.345  0.5928E+00  0.7812E+01
   4.355  0.5820E+00  0.7817E+01
   4.365  0.5713E+00  0.7823E+01
   4.375  0.5607E+00  0.7829E+01
   4.385  0.5501E+00  0.7834E+01
   4.395  0.5395E+00  0.7840E+01
   4.405  0.5290E+00  0.7845E+01
   4.415  0.5186E+00  0.7850E+01
   4.425  0.5081E+00  0.7855E+01
   4.435  0.4978E+00  0.7860E+01
   4.445  0.4874E+00  0.7865E+01
   4.455  0.4771E+00  0.7870E+01
   4.465  0.4669E+00  0.7874E+01
   4.475  0.4566E+00  0.7879E+01
   4.485  0.4464E+00  0.7883E+01
   4.495  0.4363E+00  0.7888E+01
   4.505  0.4262E+00  0.7892E+01
   4.515  0.4161E+00  0.7896E+01
   4.525  0.4060E+00  0.7900E+01
   4.535  0.3960E+00  0.7904E+01
   4.545  0.3861E+00  0.7908E+01
   4.555  0.3762E+00  0.7912E+01
   4.565  0.3663E+00  0.7916E+01
   4.575  0.3565E+00  0.7919E+01
   4.585  0.3467E+00  0.7923E+01
   4.595  0.3370E+00  0.7926E+01
   4.605  0.3273E+00  0.7929E+01
   4.615  0.3177E+00  0.7932E+01
   4.625  0.3082E+00  0.7935E+01
   4.635  0.2988E+00  0.7938E+01
   4.645  0.2894E+00  0.7941E+01
   4.655  0.2801E+00  0.7944E+01
   4.665  0.2709E+00  0.7947E+01
   4.675  0.2618E+00  0.7949E+01
   4.685  0.2528E+00  0.7952E+01
   4.695  0.2440E+00  0.7954E+01
   4.705  0.2352E+00  0.7957E+01
   4.715  0.2265E+00  0.7959E+01
   4.725  0.2180E+00  0.7961E+01
   4.735  0.2096E+00  0.7963E+01
   4.745  0.2014E+00  0.7965E+01
   4.755  0.1933E+00  0.7967E+01
   4.765  0.1853E+00  0.7969E+01
   4.775  0.1775E+00  0.7971E+01
   4.785  0.1699E+00  0.7973E+01
   4.795  0.1624E+00  0.7974E+01
   4.805  0.1551E+00  0.7976E+01
   4.815  0.1480E+00  0.7977E+01
   4.825  0.1411E+00  0.7979E+01
   4.835  0.1343E+00  0.7980E+01
   4.845  0.1278E+00  0.7981E+01
   4.855  0.1214E+00  0.7983E+01
   4.865  0.1152E+00  0.7984E+01
   4.875  0.1092E+00  0.7985E+01
   4.885  0.1034E+00  0.7986E+01
   4.895  0.9779E-01  0.7987E+01
   4.905  0.9239E-01  0.7988E+01
   4.915  0.8718E-01  0.7989E+01
   4.925  0.8217E-01  0.7989E+01
   4.935  0.7736E-01  0.7990E+01
   4.945  0.7274E-01  0.7991E+01
   4.955  0.6831E-01  0.7992E+01
   4.965  0.6408E-01  0.7992E+01
   4.975  0.6003E-01  0.7993E+01
   4.985  0.5617E-01  0.7993E+01
   4.995  0.5250E-01  0.7994E+01
   5.005  0.4900E-01  0.7994E+01
   5.015  0.4567E-01  0.7995E+01
   5.025  0.4252E-01  0.7995E+01
   5.035  0.3954E-01  0.7996E+01
   5.045  0.3671E-01  0.7996E+01
   5.055  0.3404E-01  0.7996E+01
   5.065  0.3153E-01  0.7997E+01
   5.075  0.2916E-01  0.7997E+01
   5.085  0.2694E-01  0.7997E+01
   5.095  0.2485E-01  0.7997E+01
   5.105  0.2289E-01  0.7998E+01
   5.115  0.2106E-01  0.7998E+01
   5.125  0.1935E-01  0.7998E+01
   5.135  0.1775E-01  0.7998E+01
   5.145  0.1626E-01  0.7998E+01
   5.155  0.1488E-01  0.7999E+01
   5.165  0.1360E-01  0.7999E+01
   5.175  0.1240E-01  0.7999E+01
   5.185  0.1130E-01  0.7999E+01
   5.195  0.1028E-01  0.7999E+01
   5.205  0.9343E-02  0.7999E+01
   5.215  0.8477E-02  0.7999E+01
   5.225  0.7680E-02  0.7999E+01
   5.235  0.6948E-02  0.7999E+01
   5.245  0.6277E-02  0.7999E+01
   5.255  0.5662E-02  0.8000E+01
   5.265  0.5101E-02  0.8000E+01
   5.275  0.4588E-02  0.8000E+01
   5.285  0.4121E-02  0.8000E+01
   5.295  0.3696E-02  0.8000E+01
   5.305  0.3310E-02  0.8000E+01
   5.315  0.2960E-02  0.8000E+01
   5.325  0.2643E-02  0.8000E+01
   5.335  0.2357E-02  0.8000E+01
   5.345  0.2098E-02  0.8000E+01
   5.355  0.1865E-02  0.8000E+01
   5.365  0.1656E-02  0.8000E+01
   5.375  0.1467E-02  0.8000E+01
   5.385  0.1299E-02  0.8000E+01
   5.395  0.1148E-02  0.8000E+01
   5.405  0.1013E-02  0.8000E+01
   5.415  0.8921E-03  0.8000E+01
   5.425  0.7848E-03  0.8000E+01
   5.435  0.6893E-03  0.8000E+01
   5.445  0.6046E-03  0.8000E+01
   5.455  0.5294E-03  0.8000E+01
   5.465  0.4629E-03  0.8000E+01
   5.475  0.4041E-03  0.8000E+01
   5.485  0.3523E-03  0.8000E+01
   5.495  0.3066E-03  0.8000E+01
   5.505  0.2664E-03  0.8000E+01
   5.515  0.2312E-03  0.8000E+01
   5.525  0.2003E-03  0.8000E+01
   5.535  0.1732E-03  0.8000E+01
   5.545  0.1496E-03  0.8000E+01
   5.555  0.1290E-03  0.8000E+01
   5.565  0.1111E-03  0.8000E+01
   5.575  0.9549E-04  0.8000E+01
   5.585  0.8196E-04  0.8000E+01
   5.595  0.7024E-04  0.8000E+01
   5.605  0.6010E-04  0.8000E+01
   5.615  0.5134E-04  0.8000E+01
   5.625  0.4379E-04  0.8000E+01
   5.635  0.3729E-04  0.8000E+01
   5.645  0.3171E-04  0.8000E+01
   5.655  0.2692E-04  0.8000E+01
   5.665  0.2281E-04  0.8000E+01
   5.675  0.1931E-04  0.8000E+01
   5.685  0.1631E-04  0.8000E+01
   5.695  0.1376E-04  0.8000E+01
   5.705  0.1159E-04  0.8000E+01
   5.715  0.9744E-05  0.8000E+01
   5.725  0.8180E-05  0.8000E+01
   5.735  0.6857E-05  0.8000E+01
   5.745  0.5738E-05  0.8000E+01
   5.755  0.4794E-05  0.8000E+01
   5.765  0.3999E-05  0.8000E+01
   5.775  0.3331E-05  0.8000E+01
   5.785  0.2770E-05  0.8000E+01
   5.795  0.2299E-05  0.8000E+01
   5.805  0.1906E-05  0.8000E+01
   5.815  0.1577E-05  0.8000E+01
   5.825  0.1303E-05  0.8000E+01
   5.835  0.1075E-05  0.8000E+01
   5.845  0.8850E-06  0.8000E+01
   5.855  0.7276E-06  0.8000E+01
   5.865  0.5972E-06  0.8000E+01
   5.875  0.4894E-06  0.8000E+01
   5.885  0.4005E-06  0.8000E+01
   5.895  0.3271E-06  0.8000E+01
   5.905  0.2668E-06  0.8000E+01
   5.915  0.2172E-06  0.8000E+01
   5.925  0.1766E-06  0.8000E+01
   5.935  0.1433E-06  0.8000E+01
   5.945  0.1161E-06  0.8000E+01
   5.955  0.9392E-07  0.8000E+01
   5.965  0.7585E-07  0.8000E+01
   5.975  0.6115E-07  0.8000E+01
   5.985  0.4922E-07  0.8000E+01
   5.995  0.3956E-07  0.8000E+01
   6.005  0.3174E-07  0.8000E+01
   6.015  0.2542E-07  0.8000E+01
   6.025  0.2033E-07  0.8000E+01
   6.035  0.1623E-07  0.8000E+01
   6.045  0.1294E-07  0.8000E+01
   6.055  0.1029E-07  0.8000E+01
   6.065  0.8179E-08  0.8000E+01
   6.075  0.6487E-08  0.8000E+01
   6.085  0.5136E-08  0.8000E+01
   6.095  0.4060E-08  0.8000E+01
   6.105  0.3205E-08  0.8000E+01
   6.115  0.2525E-08  0.8000E+01
   6.125  0.1986E-08  0.8000E+01
   6.135  0.1560E-08  0.8000E+01
   6.145  0.1223E-08  0.8000E+01
   6.155  0.9571E-09  0.8000E+01
   6.165  0.7479E-09  0.8000E+01
   6.175  0.5835E-09  0.8000E+01
   6.185  0.4544E-09  0.8000E+01
   6.195  0.3533E-09  0.8000E+01
   6.205  0.2743E-09  0.8000E+01
   6.215  0.2126E-09  0.8000E+01
   6.225  0.1645E-09  0.8000E+01
   6.235  0.1270E-09  0.8000E+01
   6.245  0.9798E-10  0.8000E+01
   6.255  0.7545E-10  0.8000E+01
   6.265  0.5802E-10  0.8000E+01
   6.275  0.4456E-10  0.8000E+01
   6.285  0.3419E-10  0.8000E+01
   6.295  0.2622E-10  0.8000E+01
   6.305  0.2012E-10  0.8000E+01
   6.315  0.1547E-10  0.8000E+01
   6.325  0.1195E-10  0.8000E+01
   6.335  0.9323E-11  0.8000E+01
   6.345  0.7390E-11  0.8000E+01
   6.355  0.6018E-11  0.8000E+01
   6.365  0.5107E-11  0.8000E+01
   6.375  0.4589E-11  0.8000E+01
   6.385  0.4423E-11  0.8000E+01
   6.395  0.4596E-11  0.8000E+01
   6.405  0.5113E-11  0.8000E+01
   6.415  0.6008E-11  0.8000E+01
   6.425  0.7338E-11  0.8000E+01
   6.435  0.9187E-11  0.8000E+01
   6.445  0.1168E-10  0.8000E+01
   6.455  0.1496E-10  0.8000E+01
   6.465  0.1926E-10  0.8000E+01
   6.475  0.2483E-10  0.8000E+01
   6.485  0.3203E-10  0.8000E+01
   6.495  0.4130E-10  0.8000E+01
   6.505  0.5319E-10  0.8000E+01
   6.515  0.6842E-10  0.8000E+01
   6.525  0.8789E-10  0.8000E+01
   6.535  0.1127E-09  0.8000E+01
   6.545  0.1444E-09  0.8000E+01
   6.555  0.1846E-09  0.8000E+01
   6.565  0.2356E-09  0.8000E+01
   6.575  0.3003E-09  0.8000E+01
   6.585  0.3821E-09  0.8000E+01
   6.595  0.4854E-09  0.8000E+01
   6.605  0.6157E-09  0.8000E+01
   6.615  0.7797E-09  0.8000E+01
   6.625  0.9857E-09  0.8000E+01
   6.635  0.1244E-08  0.8000E+01
   6.645  0.1568E-08  0.8000E+01
   6.655  0.1972E-08  0.8000E+01
   6.665  0.2477E-08  0.8000E+01
   6.675  0.3107E-08  0.8000E+01
   6.685  0.3890E-08  0.8000E+01
   6.695  0.4862E-08  0.8000E+01
   6.705  0.6068E-08  0.8000E+01
   6.715  0.7561E-08  0.8000E+01
   6.725  0.9406E-08  0.8000E+01
   6.735  0.1168E-07  0.8000E+01
   6.745  0.1449E-07  0.8000E+01
   6.755  0.1793E-07  0.8000E+01
   6.765  0.2217E-07  0.8000E+01
   6.775  0.2735E-07  0.8000E+01
   6.785  0.3370E-07  0.8000E+01
   6.795  0.4146E-07  0.8000E+01
   6.805  0.5091E-07  0.8000E+01
   6.815  0.6243E-07  0.8000E+01
   6.825  0.7643E-07  0.8000E+01
   6.835  0.9341E-07  0.8000E+01
   6.845  0.1140E-06  0.8000E+01
   6.855  0.1389E-06  0.8000E+01
   6.865  0.1689E-06  0.8000E+01
   6.875  0.2052E-06  0.8000E+01
   6.885  0.2488E-06  0.8000E+01
   6.895  0.3012E-06  0.8000E+01
   6.905  0.3641E-06  0.8000E+01
   6.915  0.4393E-06  0.8000E+01
   6.925  0.5294E-06  0.8000E+01
   6.935  0.6368E-06  0.8000E+01
   6.945  0.7649E-06  0.8000E+01
   6.955  0.9172E-06  0.8000E+01
   6.965  0.1098E-05  0.8000E+01
   6.975  0.1313E-05  0.8000E+01
   6.985  0.1567E-05  0.8000E+01
   6.995  0.1867E-05  0.8000E+01
   7.005  0.2221E-05  0.8000E+01
   7.015  0.2639E-05  0.8000E+01
   7.025  0.3130E-05  0.8000E+01
   7.035  0.3706E-05  0.8000E+01
   7.045  0.4382E-05  0.8000E+01
   7.055  0.5173E-05  0.8000E+01
   7.065  0.6097E-05  0.8000E+01
   7.075  0.7175E-05  0.8000E+01
   7.085  0.8431E-05  0.8000E+01
   7.095  0.9891E-05  0.8000E+01
   7.105  0.1159E-04  0.8000E+01
   7.115  0.1355E-04  0.8000E+01
   7.125  0.1582E-04  0.8000E+01
   7.135  0.1845E-04  0.8000E+01
   7.145  0.2147E-04  0.8000E+01
   7.155  0.2496E-04  0.8000E+01
   7.165  0.2897E-04  0.8000E+01
   7.175  0.3356E-04  0.8000E+01
   7.185  0.3883E-04  0.8000E+01
   7.195  0.4486E-04  0.8000E+01
   7.205  0.5174E-04  0.8000E+01
   7.215  0.5959E-04  0.8000E+01
   7.225  0.6852E-04  0.8000E+01
   7.235  0.7867E-04  0.8000E+01
   7.245  0.9019E-04  0.8000E+01
   7.255  0.1032E-03  0.8000E+01
   7.265  0.1180E-03  0.8000E+01
   7.275  0.1347E-03  0.8000E+01
   7.285  0.1534E-03  0.8000E+01
   7.295  0.1746E-03  0.8000E+01
   7.305  0.1984E-03  0.8000E+01
   7.315  0.2250E-03  0.8000E+01
   7.325  0.2549E-03  0.8000E+01
   7.335  0.2883E-03  0.8000E+01
   7.345  0.3256E-03  0.8000E+01
   7.355  0.3671E-03  0.8000E+01
   7.365  0.4134E-03  0.8000E+01
   7.375  0.4648E-03  0.8000E+01
   7.385  0.5218E-03  0.8000E+01
   7.395  0.5850E-03  0.8000E+01
   7.405  0.6549E-03  0.8000E+01
   7.415  0.7320E-03  0.8000E+01
   7.425  0.8171E-03  0.8000E+01
   7.435  0.9107E-03  0.8000E+01
   7.445  0.1014E-02  0.8000E+01
   7.455  0.1126E-02  0.8000E+01
   7.465  0.1250E-02  0.8000E+01
   7.475  0.1385E-02  0.8000E+01
   7.485  0.1533E-02  0.8000E+01
   7.495  0.1694E-02  0.8000E+01
   7.505  0.1870E-02  0.8000E+01
   7.515  0.2060E-02  0.8000E+01
   7.525  0.2267E-02  0.8000E+01
   7.535  0.2492E-02  0.8000E+01
   7.545  0.2734E-02  0.8000E+01
   7.555  0.2997E-02  0.8000E+01
   7.565  0.3279E-02  0.8000E+01
   7.575  0.3584E-02  0.8000E+01
   7.585  0.3912E-02  0.8000E+01
   7.595  0.4264E-02  0.8000E+01
   7.605  0.4641E-02  0.8001E+01
   7.615  0.5045E-02  0.8001E+01
   7.625  0.5477E-02  0.8001E+01
   7.635  0.5938E-02  0.8001E+01
   7.645  0.6429E-02  0.8001E+01
   7.655  0.6952E-02  0.8001E+01
   7.665  0.7508E-02  0.8001E+01
   7.675  0.8098E-02  0.8001E+01
   7.685  0.8723E-02  0.8001E+01
   7.695  0.9385E-02  0.8001E+01
   7.705  0.1008E-01  0.8001E+01
   7.715  0.1082E-01  0.8001E+01
   7.725  0.1160E-01  0.8001E+01
   7.735  0.1242E-01  0.8002E+01
   7.745  0.1328E-01  0.8002E+01
   7.755  0.1418E-01  0.8002E+01
   7.765  0.1512E-01  0.8002E+01
   7.775  0.1611E-01  0.8002E+01
   7.785  0.1715E-01  0.8002E+01
   7.795  0.1822E-01  0.8003E+01
   7.805  0.1935E-01  0.8003E+01
   7.815  0.2052E-01  0.8003E+01
   7.825  0.2174E-01  0.8003E+01
   7.835  0.2300E-01  0.8003E+01
   7.845  0.2431E-01  0.8004E+01
   7.855  0.2567E-01  0.8004E+01
   7.865  0.2707E-01  0.8004E+01
   7.875  0.2852E-01  0.8004E+01
   7.885  0.3002E-01  0.8005E+01
   7.895  0.3156E-01  0.8005E+01
   7.905  0.3315E-01  0.8005E+01
   7.915  0.3479E-01  0.8006E+01
   7.925  0.3646E-01  0.8006E+01
   7.935  0.3819E-01  0.8006E+01
   7.945  0.3995E-01  0.8007E+01
   7.955  0.4176E-01  0.8007E+01
   7.965  0.4361E-01  0.8008E+01
   7.975  0.4550E-01  0.8008E+01
   7.985  0.4743E-01  0.8009E+01
   7.995  0.4940E-01  0.8009E+01
   8.005  0.5141E-01  0.8010E+01
   8.015  0.5345E-01  0.8010E+01
   8.025  0.5553E-01  0.8011E+01
   8.035  0.5765E-01  0.8011E+01
   8.045  0.5979E-01  0.8012E+01
   8.055  0.6197E-01  0.8013E+01
   8.065  0.6418E-01  0.8013E+01
   8.075  0.6641E-01  0.8014E+01
   8.085  0.6868E-01  0.8015E+01
   8.095  0.7097E-01  0.8015E+01
   8.105  0.7329E-01  0.8016E+01
   8.115  0.7564E-01  0.8017E+01
   8.125  0.7800E-01  0.8018E+01
   8.135  0.8039E-01  0.8018E+01
   8.145  0.8280E-01  0.8019E+01
   8.155  0.8523E-01  0.8020E+01
   8.165  0.8768E-01  0.8021E+01
   8.175  0.9015E-01  0.8022E+01
   8.185  0.9263E-01  0.8023E+01
   8.195  0.9513E-01  0.8024E+01
   8.205  0.9765E-01  0.8025E+01
   8.215  0.1002E+00  0.8026E+01
   8.225  0.1027E+00  0.8027E+01
   8.235  0.1053E+00  0.8028E+01
   8.245  0.1078E+00  0.8029E+01
   8.255  0.1104E+00  0.8030E+01
   8.265  0.1130E+00  0.8031E+01
   8.275  0.1156E+00  0.8032E+01
   8.285  0.1182E+00  0.8033E+01
   8.295  0.1209E+00  0.8035E+01
   8.305  0.1235E+00  0.8036E+01
   8.315  0.1261E+00  0.8037E+01
   8.325  0.1288E+00  0.8038E+01
   8.335  0.1314E+00  0.8040E+01
   8.345  0.1341E+00  0.8041E+01
   8.355  0.1367E+00  0.8042E+01
   8.365  0.1394E+00  0.8044E+01
   8.375  0.1421E+00  0.8045E+01
   8.385  0.1448E+00  0.8047E+01
   8.395  0.1475E+00  0.8048E+01
   8.405  0.1501E+00  0.8050E+01
   8.415  0.1528E+00  0.8051E+01
   8.425  0.1556E+00  0.8053E+01
   8.435  0.1583E+00  0.8054E+01
   8.445  0.1610E+00  0.8056E+01
   8.455  0.1637E+00  0.8058E+01
   8.465  0.1665E+00  0.8059E+01
   8.475  0.1692E+00  0.8061E+01
   8.485  0.1720E+00  0.8063E+01
   8.495  0.1747E+00  0.8064E+01
   8.505  0.1775E+00  0.8066E+01
   8.515  0.1803E+00  0.8068E+01
   8.525  0.1831E+00  0.8070E+01
   8.535  0.1859E+00  0.8072E+01
   8.545  0.1887E+00  0.8074E+01
   8.555  0.1915E+00  0.8075E+01
   8.565  0.1944E+00  0.8077E+01
   8.575  0.1972E+00  0.8079E+01
   8.585  0.2001E+00  0.8081E+01
   8.595  0.2030E+00  0.8083E+01
   8.605  0.2059E+00  0.8085E+01
   8.615  0.2088E+00  0.8088E+01
   8.625  0.2118E+00  0.8090E+01
   8.635  0.2147E+00  0.8092E+01
   8.645  0.2177E+00  0.8094E+01
   8.655  0.2208E+00  0.8096E+01
   8.665  0.2238E+00  0.8098E+01
   8.675  0.2269E+00  0.8101E+01
   8.685  0.2300E+00  0.8103E+01
   8.695  0.2331E+00  0.8105E+01
   8.705  0.2362E+00  0.8108E+01
   8.715  0.2394E+00  0.8110E+01
   8.725  0.2426E+00  0.8112E+01
   8.735  0.2458E+00  0.8115E+01
   8.745  0.2491E+00  0.8117E+01
   8.755  0.2524E+00  0.8120E+01
   8.765  0.2558E+00  0.8123E+01
   8.775  0.2592E+00  0.8125E+01
   8.785  0.2626E+00  0.8128E+01
   8.795  0.2660E+00  0.8130E+01
   8.805  0.2695E+00  0.8133E+01
   8.815  0.2731E+00  0.8136E+01
   8.825  0.2767E+00  0.8139E+01
   8.835  0.2803E+00  0.8141E+01
   8.845  0.2840E+00  0.8144E+01
   8.855  0.2878E+00  0.8147E+01
   8.865  0.2916E+00  0.8150E+01
   8.875  0.2954E+00  0.8153E+01
   8.885  0.2994E+00  0.8156E+01
   8.895  0.3033E+00  0.8159E+01
   8.905  0.3074E+00  0.8162E+01
   8.915  0.3115E+00  0.8165E+01
   8.925  0.3157E+00  0.8168E+01
   8.935  0.3200E+00  0.8172E+01
   8.945  0.3244E+00  0.8175E+01
   8.955  0.3288E+00  0.8178E+01
   8.965  0.3333E+00  0.8181E+01
   8.975  0.3380E+00  0.8185E+01
   8.985  0.3427E+00  0.8188E+01
   8.995  0.3475E+00  0.8192E+01
   9.005  0.3524E+00  0.8195E+01
   9.015  0.3575E+00  0.8199E+01
   9.025  0.3626E+00  0.8202E+01
   9.035  0.3679E+00  0.8206E+01
   9.045  0.3733E+00  0.8210E+01
   9.055  0.3788E+00  0.8214E+01
   9.065  0.3844E+00  0.8217E+01
   9.075  0.3901E+00  0.8221E+01
   9.085  0.3960E+00  0.8225E+01
   9.095  0.4020E+00  0.8229E+01
   9.105  0.4082E+00  0.8233E+01
   9.115  0.4144E+00  0.8238E+01
   9.125  0.4208E+00  0.8242E+01
   9.135  0.4273E+00  0.8246E+01
   9.145  0.4340E+00  0.8250E+01
   9.155  0.4408E+00  0.8255E+01
   9.165  0.4477E+00  0.8259E+01
   9.175  0.4548E+00  0.8264E+01
   9.185  0.4619E+00  0.8268E+01
   9.195  0.4692E+00  0.8273E+01
   9.205  0.4767E+00  0.8278E+01
   9.215  0.4842E+00  0.8283E+01
   9.225  0.4918E+00  0.8288E+01
   9.235  0.4996E+00  0.8293E+01
   9.245  0.5075E+00  0.8298E+01
   9.255  0.5155E+00  0.8303E+01
   9.265  0.5236E+00  0.8308E+01
   9.275  0.5317E+00  0.8313E+01
   9.285  0.5400E+00  0.8319E+01
   9.295  0.5484E+00  0.8324E+01
   9.305  0.5569E+00  0.8330E+01
   9.315  0.5654E+00  0.8336E+01
   9.325  0.5740E+00  0.8341E+01
   9.335  0.5827E+00  0.8347E+01
   9.345  0.5915E+00  0.8353E+01
   9.355  0.6004E+00  0.8359E+01
   9.365  0.6094E+00  0.8365E+01
   9.375  0.6184E+00  0.8371E+01
   9.385  0.6275E+00  0.8378E+01
   9.395  0.6366E+00  0.8384E+01
   9.405  0.6459E+00  0.8390E+01
   9.415  0.6552E+00  0.8397E+01
   9.425  0.6646E+00  0.8404E+01
   9.435  0.6741E+00  0.8410E+01
   9.445  0.6836E+00  0.8417E+01
   9.455  0.6933E+00  0.8424E+01
   9.465  0.7030E+00  0.8431E+01
   9.475  0.7128E+00  0.8438E+01
   9.485  0.7227E+00  0.8446E+01
   9.495  0.7327E+00  0.8453E+01
   9.505  0.7427E+00  0.8460E+01
   9.515  0.7529E+00  0.8468E+01
   9.525  0.7632E+00  0.8475E+01
   9.535  0.7735E+00  0.8483E+01
   9.545  0.7840E+00  0.8491E+01
   9.555  0.7946E+00  0.8499E+01
   9.565  0.8052E+00  0.8507E+01
   9.575  0.8160E+00  0.8515E+01
   9.585  0.8269E+00  0.8523E+01
   9.595  0.8378E+00  0.8532E+01
   9.605  0.8489E+00  0.8540E+01
   9.615  0.8601E+00  0.8549E+01
   9.625  0.8713E+00  0.8558E+01
   9.635  0.8827E+00  0.8566E+01
   9.645  0.8941E+00  0.8575E+01
   9.655  0.9057E+00  0.8584E+01
   9.665  0.9173E+00  0.8594E+01
   9.675  0.9290E+00  0.8603E+01
   9.685  0.9407E+00  0.8612E+01
   9.695  0.9525E+00  0.8622E+01
   9.705  0.9644E+00  0.8631E+01
   9.715  0.9763E+00  0.8641E+01
   9.725  0.9883E+00  0.8651E+01
   9.735  0.1000E+01  0.8661E+01
   9.745  0.1012E+01  0.8671E+01
   9.755  0.1024E+01  0.8681E+01
   9.765  0.1036E+01  0.8692E+01
   9.775  0.1048E+01  0.8702E+01
   9.785  0.1060E+01  0.8713E+01
   9.795  0.1072E+01  0.8724E+01
   9.805  0.1084E+01  0.8734E+01
   9.815  0.1096E+01  0.8745E+01
   9.825  0.1108E+01  0.8757E+01
   9.835  0.1119E+01  0.8768E+01
   9.845  0.1131E+01  0.8779E+01
   9.855  0.1143E+01  0.8790E+01
   9.865  0.1154E+01  0.8802E+01
   9.875  0.1165E+01  0.8814E+01
   9.885  0.1177E+01  0.8825E+01
   9.895  0.1188E+01  0.8837E+01
   9.905  0.1199E+01  0.8849E+01
   9.915  0.1209E+01  0.8861E+01
   9.925  0.1220E+01  0.8874E+01
   9.935  0.1231E+01  0.8886E+01
   9.945  0.1241E+01  0.8898E+01
   9.955  0.1251E+01  0.8911E+01
   9.965  0.1261E+01  0.8923E+01
   9.975  0.1271E+01  0.8936E+01
   9.985  0.1281E+01  0.8949E+01
   9.995  0.1290E+01  0.8962E+01
  10.005  0.1299E+01  0.8975E+01
  10.015  0.1308E+01  0.8988E+01
  10.025  0.1317E+01  0.9001E+01
  10.035  0.1326E+01  0.9014E+01
  10.045  0.1334E+01  0.9028E+01
  10.055  0.1343E+01  0.9041E+01
  10.065  0.1351E+01  0.9055E+01
  10.075  0.1358E+01  0.9068E+01
  10.085  0.1366E+01  0.9082E+01
  10.095  0.1373E+01  0.9096E+01
  10.105  0.1380E+01  0.9109E+01
  10.115  0.1387E+01  0.9123E+01
  10.125  0.1393E+01  0.9137E+01
  10.135  0.1399E+01  0.9151E+01
  10.145  0.1405E+01  0.9165E+01
  10.155  0.1411E+01  0.9179E+01
  10.165  0.1416E+01  0.9194E+01
  10.175  0.1421E+01  0.9208E+01
  10.185  0.1426E+01  0.9222E+01
  10.195  0.1430E+01  0.9236E+01
  10.205  0.1435E+01  0.9251E+01
  10.215  0.1438E+01  0.9265E+01
  10.225  0.1442E+01  0.9279E+01
  10.235  0.1445E+01  0.9294E+01
  10.245  0.1448E+01  0.9308E+01
  10.255  0.1450E+01  0.9323E+01
  10.265  0.1452E+01  0.9337E+01
  10.275  0.1454E+01  0.9352E+01
  10.285  0.1455E+01  0.9366E+01
  10.295  0.1456E+01  0.9381E+01
  10.305  0.1457E+01  0.9396E+01
  10.315  0.1457E+01  0.9410E+01
  10.325  0.1457E+01  0.9425E+01
  10.335  0.1456E+01  0.9439E+01
  10.345  0.1456E+01  0.9454E+01
  10.355  0.1454E+01  0.9468E+01
  10.365  0.1453E+01  0.9483E+01
  10.375  0.1451E+01  0.9497E+01
  10.385  0.1448E+01  0.9512E+01
  10.395  0.1446E+01  0.9526E+01
  10.405  0.1443E+01  0.9541E+01
  10.415  0.1439E+01  0.9555E+01
  10.425  0.1435E+01  0.9570E+01
  10.435  0.1431E+01  0.9584E+01
  10.445  0.1426E+01  0.9598E+01
  10.455  0.1422E+01  0.9612E+01
  10.465  0.1416E+01  0.9627E+01
  10.475  0.1411E+01  0.9641E+01
  10.485  0.1405E+01  0.9655E+01
  10.495  0.1398E+01  0.9669E+01
  10.505  0.1392E+01  0.9683E+01
  10.515  0.1385E+01  0.9696E+01
  10.525  0.1378E+01  0.9710E+01
  10.535  0.1370E+01  0.9724E+01
  10.545  0.1362E+01  0.9738E+01
  10.555  0.1354E+01  0.9751E+01
  10.565  0.1346E+01  0.9765E+01
  10.575  0.1337E+01  0.9778E+01
  10.585  0.1328E+01  0.9791E+01
  10.595  0.1319E+01  0.9804E+01
  10.605  0.1310E+01  0.9817E+01
  10.615  0.1300E+01  0.9830E+01
  10.625  0.1290E+01  0.9843E+01
  10.635  0.1280E+01  0.9856E+01
  10.645  0.1270E+01  0.9869E+01
  10.655  0.1260E+01  0.9881E+01
  10.665  0.1249E+01  0.9894E+01
  10.675  0.1239E+01  0.9906E+01
  10.685  0.1228E+01  0.9919E+01
  10.695  0.1217E+01  0.9931E+01
  10.705  0.1206E+01  0.9943E+01
  10.715  0.1195E+01  0.9955E+01
  10.725  0.1183E+01  0.9967E+01
  10.735  0.1172E+01  0.9978E+01
  10.745  0.1161E+01  0.9990E+01
  10.755  0.1149E+01  0.1000E+02
  10.765  0.1138E+01  0.1001E+02
  10.775  0.1127E+01  0.1002E+02
  10.785  0.1115E+01  0.1004E+02
  10.795  0.1104E+01  0.1005E+02
  10.805  0.1093E+01  0.1006E+02
  10.815  0.1081E+01  0.1007E+02
  10.825  0.1070E+01  0.1008E+02
  10.835  0.1059E+01  0.1009E+02
  10.845  0.1048E+01  0.1010E+02
  10.855  0.1038E+01  0.1011E+02
  10.865  0.1027E+01  0.1012E+02
  10.875  0.1017E+01  0.1013E+02
  10.885  0.1007E+01  0.1014E+02
  10.895  0.9966E+00  0.1015E+02
  10.905  0.9869E+00  0.1016E+02
  10.915  0.9774E+00  0.1017E+02
  10.925  0.9682E+00  0.1018E+02
  10.935  0.9592E+00  0.1019E+02
  10.945  0.9506E+00  0.1020E+02
  10.955  0.9423E+00  0.1021E+02
  10.965  0.9343E+00  0.1022E+02
  10.975  0.9266E+00  0.1023E+02
  10.985  0.9193E+00  0.1024E+02
  10.995  0.9123E+00  0.1025E+02
  11.005  0.9057E+00  0.1025E+02
  11.015  0.8996E+00  0.1026E+02
  11.025  0.8938E+00  0.1027E+02
  11.035  0.8884E+00  0.1028E+02
  11.045  0.8834E+00  0.1029E+02
  11.055  0.8789E+00  0.1030E+02
  11.065  0.8748E+00  0.1031E+02
  11.075  0.8712E+00  0.1032E+02
  11.085  0.8680E+00  0.1033E+02
  11.095  0.8652E+00  0.1033E+02
  11.105  0.8630E+00  0.1034E+02
  11.115  0.8612E+00  0.1035E+02
  11.125  0.8599E+00  0.1036E+02
  11.135  0.8591E+00  0.1037E+02
  11.145  0.8587E+00  0.1038E+02
  11.155  0.8589E+00  0.1039E+02
  11.165  0.8596E+00  0.1039E+02
  11.175  0.8607E+00  0.1040E+02
  11.185  0.8624E+00  0.1041E+02
  11.195  0.8645E+00  0.1042E+02
  11.205  0.8672E+00  0.1043E+02
  11.215  0.8704E+00  0.1044E+02
  11.225  0.8741E+00  0.1045E+02
  11.235  0.8783E+00  0.1045E+02
  11.245  0.8830E+00  0.1046E+02
  11.255  0.8881E+00  0.1047E+02
  11.265  0.8938E+00  0.1048E+02
  11.275  0.9000E+00  0.1049E+02
  11.285  0.9067E+00  0.1050E+02
  11.295  0.9138E+00  0.1051E+02
  11.305  0.9214E+00  0.1052E+02
  11.315  0.9294E+00  0.1053E+02
  11.325  0.9379E+00  0.1054E+02
  11.335  0.9468E+00  0.1055E+02
  11.345  0.9561E+00  0.1056E+02
  11.355  0.9659E+00  0.1057E+02
  11.365  0.9760E+00  0.1057E+02
  11.375  0.9865E+00  0.1058E+02
  11.385  0.9973E+00  0.1059E+02
  11.395  0.1008E+01  0.1060E+02
  11.405  0.1020E+01  0.1062E+02
  11.415  0.1032E+01  0.1063E+02
  11.425  0.1044E+01  0.1064E+02
  11.435  0.1056E+01  0.1065E+02
  11.445  0.1068E+01  0.1066E+02
  11.455  0.1081E+01  0.1067E+02
  11.465  0.1094E+01  0.1068E+02
  11.475  0.1106E+01  0.1069E+02
  11.485  0.1119E+01  0.1070E+02
  11.495  0.1133E+01  0.1071E+02
  11.505  0.1146E+01  0.1072E+02
  11.515  0.1159E+01  0.1074E+02
  11.525  0.1172E+01  0.1075E+02
  11.535  0.1185E+01  0.1076E+02
  11.545  0.1198E+01  0.1077E+02
  11.555  0.1211E+01  0.1078E+02
  11.565  0.1223E+01  0.1080E+02
  11.575  0.1236E+01  0.1081E+02
  11.585  0.1248E+01  0.1082E+02
  11.595  0.1261E+01  0.1083E+02
  11.605  0.1273E+01  0.1085E+02
  11.615  0.1284E+01  0.1086E+02
  11.625  0.1296E+01  0.1087E+02
  11.635  0.1307E+01  0.1088E+02
  11.645  0.1318E+01  0.1090E+02
  11.655  0.1329E+01  0.1091E+02
  11.665  0.1339E+01  0.1092E+02
  11.675  0.1349E+01  0.1094E+02
  11.685  0.1358E+01  0.1095E+02
  11.695  0.1368E+01  0.1096E+02
  11.705  0.1376E+01  0.1098E+02
  11.715  0.1385E+01  0.1099E+02
  11.725  0.1393E+01  0.1101E+02
  11.735  0.1401E+01  0.1102E+02
  11.745  0.1408E+01  0.1103E+02
  11.755  0.1415E+01  0.1105E+02
  11.765  0.1421E+01  0.1106E+02
  11.775  0.1427E+01  0.1108E+02
  11.785  0.1433E+01  0.1109E+02
  11.795  0.1438E+01  0.1111E+02
  11.805  0.1443E+01  0.1112E+02
  11.815  0.1447E+01  0.1113E+02
  11.825  0.1451E+01  0.1115E+02
  11.835  0.1454E+01  0.1116E+02
  11.845  0.1457E+01  0.1118E+02
  11.855  0.1460E+01  0.1119E+02
  11.865  0.1462E+01  0.1121E+02
  11.875  0.1464E+01  0.1122E+02
  11.885  0.1466E+01  0.1124E+02
  11.895  0.1467E+01  0.1125E+02
  11.905  0.1467E+01  0.1127E+02
  11.915  0.1468E+01  0.1128E+02
  11.925  0.1468E+01  0.1130E+02
  11.935  0.1467E+01  0.1131E+02
  11.945  0.1466E+01  0.1132E+02
  11.955  0.1465E+01  0.1134E+02
  11.965  0.1464E+01  0.1135E+02
  11.975  0.1462E+01  0.1137E+02
  11.985  0.1460E+01  0.1138E+02
  11.995  0.1457E+01  0.1140E+02
  12.005  0.1455E+01  0.1141E+02
  12.015  0.1452E+01  0.1143E+02
  12.025  0.1448E+01  0.1144E+02
  12.035  0.1445E+01  0.1146E+02
  12.045  0.1441E+01  0.1147E+02
  12.055  0.1437E+01  0.1148E+02
  12.065  0.1432E+01  0.1150E+02
  12.075  0.1428E+01  0.1151E+02
  12.085  0.1423E+01  0.1153E+02
  12.095  0.1418E+01  0.1154E+02
  12.105  0.1413E+01  0.1156E+02
  12.115  0.1407E+01  0.1157E+02
  12.125  0.1402E+01  0.1158E+02
  12.135  0.1397E+01  0.1160E+02
  12.145  0.1391E+01  0.1161E+02
  12.155  0.1385E+01  0.1163E+02
  12.165  0.1379E+01  0.1164E+02
  12.175  0.1374E+01  0.1165E+02
  12.185  0.1368E+01  0.1167E+02
  12.195  0.1362E+01  0.1168E+02
  12.205  0.1356E+01  0.1169E+02
  12.215  0.1350E+01  0.1171E+02
  12.225  0.1345E+01  0.1172E+02
  12.235  0.1339E+01  0.1173E+02
  12.245  0.1334E+01  0.1175E+02
  12.255  0.1328E+01  0.1176E+02
  12.265  0.1323E+01  0.1177E+02
  12.275  0.1318E+01  0.1179E+02
  12.285  0.1314E+01  0.1180E+02
  12.295  0.1309E+01  0.1181E+02
  12.305  0.1305E+01  0.1183E+02
  12.315  0.1300E+01  0.1184E+02
  12.325  0.1297E+01  0.1185E+02
  12.335  0.1293E+01  0.1187E+02
  12.345  0.1290E+01  0.1188E+02
  12.355  0.1287E+01  0.1189E+02
  12.365  0.1284E+01  0.1190E+02
  12.375  0.1282E+01  0.1192E+02
  12.385  0.1280E+01  0.1193E+02
  12.395  0.1278E+01  0.1194E+02
  12.405  0.1276E+01  0.1196E+02
  12.415  0.1275E+01  0.1197E+02
  12.425  0.1275E+01  0.1198E+02
  12.435  0.1274E+01  0.1199E+02
  12.445  0.1274E+01  0.1201E+02
  12.455  0.1275E+01  0.1202E+02
  12.465  0.1276E+01  0.1203E+02
  12.475  0.1277E+01  0.1204E+02
  12.485  0.1278E+01  0.1206E+02
  12.495  0.1280E+01  0.1207E+02
  12.505  0.1282E+01  0.1208E+02
  12.515  0.1284E+01  0.1210E+02
  12.525  0.1287E+01  0.1211E+02
  12.535  0.1290E+01  0.1212E+02
  12.545  0.1293E+01  0.1213E+02
  12.555  0.1297E+01  0.1215E+02
  12.565  0.1301E+01  0.1216E+02
  12.575  0.1305E+01  0.1217E+02
  12.585  0.1309E+01  0.1219E+02
  12.595  0.1314E+01  0.1220E+02
  12.605  0.1318E+01  0.1221E+02
  12.615  0.1323E+01  0.1223E+02
  12.625  0.1328E+01  0.1224E+02
  12.635  0.1333E+01  0.1225E+02
  12.645  0.1339E+01  0.1227E+02
  12.655  0.1344E+01  0.1228E+02
  12.665  0.1350E+01  0.1229E+02
  12.675  0.1355E+01  0.1231E+02
  12.685  0.1361E+01  0.1232E+02
  12.695  0.1366E+01  0.1233E+02
  12.705  0.1372E+01  0.1235E+02
  12.715  0.1377E+01  0.1236E+02
  12.725  0.1383E+01  0.1238E+02
  12.735  0.1388E+01  0.1239E+02
  12.745  0.1393E+01  0.1240E+02
  12.755  0.1398E+01  0.1242E+02
  12.765  0.1403E+01  0.1243E+02
  12.775  0.1407E+01  0.1245E+02
  12.785  0.1412E+01  0.1246E+02
  12.795  0.1416E+01  0.1247E+02
  12.805  0.1419E+01  0.1249E+02
  12.815  0.1423E+01  0.1250E+02
  12.825  0.1426E+01  0.1252E+02
  12.835  0.1429E+01  0.1253E+02
  12.845  0.1431E+01  0.1254E+02
  12.855  0.1433E+01  0.1256E+02
  12.865  0.1434E+01  0.1257E+02
  12.875  0.1435E+01  0.1259E+02
  12.885  0.1436E+01  0.1260E+02
  12.895  0.1436E+01  0.1262E+02
  12.905  0.1436E+01  0.1263E+02
  12.915  0.1435E+01  0.1265E+02
  12.925  0.1434E+01  0.1266E+02
  12.935  0.1433E+01  0.1267E+02
  12.945  0.1431E+01  0.1269E+02
  12.955  0.1428E+01  0.1270E+02
  12.965  0.1425E+01  0.1272E+02
  12.975  0.1422E+01  0.1273E+02
  12.985  0.1418E+01  0.1275E+02
  12.995  0.1414E+01  0.1276E+02
  13.005  0.1409E+01  0.1277E+02
  13.015  0.1404E+01  0.1279E+02
  13.025  0.1398E+01  0.1280E+02
  13.035  0.1393E+01  0.1282E+02
  13.045  0.1386E+01  0.1283E+02
  13.055  0.1380E+01  0.1284E+02
  13.065  0.1373E+01  0.1286E+02
  13.075  0.1366E+01  0.1287E+02
  13.085  0.1359E+01  0.1288E+02
  13.095  0.1352E+01  0.1290E+02
  13.105  0.1344E+01  0.1291E+02
  13.115  0.1337E+01  0.1292E+02
  13.125  0.1329E+01  0.1294E+02
  13.135  0.1321E+01  0.1295E+02
  13.145  0.1313E+01  0.1296E+02
  13.155  0.1305E+01  0.1298E+02
  13.165  0.1297E+01  0.1299E+02
  13.175  0.1290E+01  0.1300E+02
  13.185  0.1282E+01  0.1302E+02
  13.195  0.1274E+01  0.1303E+02
  13.205  0.1267E+01  0.1304E+02
  13.215  0.1259E+01  0.1305E+02
  13.225  0.1252E+01  0.1307E+02
  13.235  0.1245E+01  0.1308E+02
  13.245  0.1238E+01  0.1309E+02
  13.255  0.1231E+01  0.1310E+02
  13.265  0.1224E+01  0.1312E+02
  13.275  0.1218E+01  0.1313E+02
  13.285  0.1212E+01  0.1314E+02
  13.295  0.1206E+01  0.1315E+02
  13.305  0.1200E+01  0.1316E+02
  13.315  0.1194E+01  0.1318E+02
  13.325  0.1189E+01  0.1319E+02
  13.335  0.1184E+01  0.1320E+02
  13.345  0.1179E+01  0.1321E+02
  13.355  0.1175E+01  0.1322E+02
  13.365  0.1170E+01  0.1323E+02
  13.375  0.1166E+01  0.1325E+02
  13.385  0.1162E+01  0.1326E+02
  13.395  0.1158E+01  0.1327E+02
  13.405  0.1154E+01  0.1328E+02
  13.415  0.1151E+01  0.1329E+02
  13.425  0.1147E+01  0.1330E+02
  13.435  0.1144E+01  0.1332E+02
  13.445  0.1141E+01  0.1333E+02
  13.455  0.1138E+01  0.1334E+02
  13.465  0.1135E+01  0.1335E+02
  13.475  0.1132E+01  0.1336E+02
  13.485  0.1129E+01  0.1337E+02
  13.495  0.1126E+01  0.1338E+02
  13.505  0.1123E+01  0.1339E+02
  13.515  0.1120E+01  0.1341E+02
  13.525  0.1117E+01  0.1342E+02
  13.535  0.1114E+01  0.1343E+02
  13.545  0.1111E+01  0.1344E+02
  13.555  0.1108E+01  0.1345E+02
  13.565  0.1105E+01  0.1346E+02
  13.575  0.1102E+01  0.1347E+02
  13.585  0.1099E+01  0.1348E+02
  13.595  0.1096E+01  0.1349E+02
  13.605  0.1093E+01  0.1351E+02
  13.615  0.1090E+01  0.1352E+02
  13.625  0.1086E+01  0.1353E+02
  13.635  0.1083E+01  0.1354E+02
  13.645  0.1080E+01  0.1355E+02
  13.655  0.1077E+01  0.1356E+02
  13.665  0.1073E+01  0.1357E+02
  13.675  0.1070E+01  0.1358E+02
  13.685  0.1067E+01  0.1359E+02
  13.695  0.1063E+01  0.1360E+02
  13.705  0.1060E+01  0.1361E+02
  13.715  0.1057E+01  0.1362E+02
  13.725  0.1053E+01  0.1363E+02
  13.735  0.1050E+01  0.1364E+02
  13.745  0.1047E+01  0.1366E+02
  13.755  0.1044E+01  0.1367E+02
  13.765  0.1041E+01  0.1368E+02
  13.775  0.1038E+01  0.1369E+02
  13.785  0.1035E+01  0.1370E+02
  13.795  0.1032E+01  0.1371E+02
  13.805  0.1029E+01  0.1372E+02
  13.815  0.1027E+01  0.1373E+02
  13.825  0.1024E+01  0.1374E+02
  13.835  0.1022E+01  0.1375E+02
  13.845  0.1020E+01  0.1376E+02
  13.855  0.1017E+01  0.1377E+02
  13.865  0.1015E+01  0.1378E+02
  13.875  0.1013E+01  0.1379E+02
  13.885  0.1012E+01  0.1380E+02
  13.895  0.1010E+01  0.1381E+02
  13.905  0.1008E+01  0.1382E+02
  13.915  0.1007E+01  0.1383E+02
  13.925  0.1005E+01  0.1384E+02
  13.935  0.1004E+01  0.1385E+02
  13.945  0.1003E+01  0.1386E+02
  13.955  0.1001E+01  0.1387E+02
  13.965  0.1000E+01  0.1388E+02
  13.975  0.9990E+00  0.1389E+02
  13.985  0.9978E+00  0.1390E+02
  13.995  0.9968E+00  0.1391E+02
  14.005  0.9957E+00  0.1392E+02
  14.015  0.9946E+00  0.1393E+02
  14.025  0.9935E+00  0.1394E+02
  14.035  0.9924E+00  0.1395E+02
  14.045  0.9912E+00  0.1396E+02
  14.055  0.9900E+00  0.1397E+02
  14.065  0.9888E+00  0.1398E+02
  14.075  0.9875E+00  0.1399E+02
  14.085  0.9861E+00  0.1400E+02
  14.095  0.9847E+00  0.1401E+02
  14.105  0.9832E+00  0.1402E+02
  14.115  0.9817E+00  0.1403E+02
  14.125  0.9801E+00  0.1404E+02
  14.135  0.9784E+00  0.1405E+02
  14.145  0.9766E+00  0.1406E+02
  14.155  0.9748E+00  0.1407E+02
  14.165  0.9729E+00  0.1408E+02
  14.175  0.9710E+00  0.1409E+02
  14.185  0.9690E+00  0.1410E+02
  14.195  0.9670E+00  0.1411E+02
  14.205  0.9650E+00  0.1412E+02
  14.215  0.9629E+00  0.1413E+02
  14.225  0.9609E+00  0.1413E+02
  14.235  0.9588E+00  0.1414E+02
  14.245  0.9568E+00  0.1415E+02
  14.255  0.9549E+00  0.1416E+02
  14.265  0.9530E+00  0.1417E+02
  14.275  0.9512E+00  0.1418E+02
  14.285  0.9495E+00  0.1419E+02
  14.295  0.9479E+00  0.1420E+02
  14.305  0.9464E+00  0.1421E+02
  14.315  0.9451E+00  0.1422E+02
  14.325  0.9440E+00  0.1423E+02
  14.335  0.9431E+00  0.1424E+02
  14.345  0.9423E+00  0.1425E+02
  14.355  0.9418E+00  0.1426E+02
  14.365  0.9416E+00  0.1427E+02
  14.375  0.9415E+00  0.1428E+02
  14.385  0.9418E+00  0.1429E+02
  14.395  0.9423E+00  0.1430E+02
  14.405  0.9431E+00  0.1431E+02
  14.415  0.9442E+00  0.1431E+02
  14.425  0.9456E+00  0.1432E+02
  14.435  0.9473E+00  0.1433E+02
  14.445  0.9493E+00  0.1434E+02
  14.455  0.9516E+00  0.1435E+02
  14.465  0.9543E+00  0.1436E+02
  14.475  0.9572E+00  0.1437E+02
  14.485  0.9604E+00  0.1438E+02
  14.495  0.9640E+00  0.1439E+02
  14.505  0.9678E+00  0.1440E+02
  14.515  0.9719E+00  0.1441E+02
  14.525  0.9763E+00  0.1442E+02
  14.535  0.9809E+00  0.1443E+02
  14.545  0.9858E+00  0.1444E+02
  14.555  0.9909E+00  0.1445E+02
  14.565  0.9963E+00  0.1446E+02
  14.575  0.1002E+01  0.1447E+02
  14.585  0.1007E+01  0.1448E+02
  14.595  0.1013E+01  0.1449E+02
  14.605  0.1019E+01  0.1450E+02
  14.615  0.1025E+01  0.1451E+02
  14.625  0.1032E+01  0.1452E+02
  14.635  0.1038E+01  0.1453E+02
  14.645  0.1044E+01  0.1454E+02
  14.655  0.1051E+01  0.1455E+02
  14.665  0.1057E+01  0.1456E+02
  14.675  0.1064E+01  0.1457E+02
  14.685  0.1070E+01  0.1458E+02
  14.695  0.1076E+01  0.1459E+02
  14.705  0.1083E+01  0.1461E+02
  14.715  0.1089E+01  0.1462E+02
  14.725  0.1095E+01  0.1463E+02
  14.735  0.1101E+01  0.1464E+02
  14.745  0.1107E+01  0.1465E+02
  14.755  0.1113E+01  0.1466E+02
  14.765  0.1119E+01  0.1467E+02
  14.775  0.1125E+01  0.1468E+02
  14.785  0.1130E+01  0.1469E+02
  14.795  0.1135E+01  0.1471E+02
  14.805  0.1141E+01  0.1472E+02
  14.815  0.1146E+01  0.1473E+02
  14.825  0.1151E+01  0.1474E+02
  14.835  0.1155E+01  0.1475E+02
  14.845  0.1160E+01  0.1476E+02
  14.855  0.1165E+01  0.1477E+02
  14.865  0.1169E+01  0.1479E+02
  14.875  0.1173E+01  0.1480E+02
  14.885  0.1177E+01  0.1481E+02
  14.895  0.1181E+01  0.1482E+02
  14.905  0.1185E+01  0.1483E+02
  14.915  0.1188E+01  0.1485E+02
  14.925  0.1192E+01  0.1486E+02
  14.935  0.1195E+01  0.1487E+02
  14.945  0.1198E+01  0.1488E+02
  14.955  0.1202E+01  0.1489E+02
  14.965  0.1205E+01  0.1491E+02
  14.975  0.1207E+01  0.1492E+02
  14.985  0.1210E+01  0.1493E+02
  14.995  0.1213E+01  0.1494E+02
  15.005  0.1215E+01  0.1495E+02
  15.015  0.1218E+01  0.1497E+02
  15.025  0.1220E+01  0.1498E+02
  15.035  0.1222E+01  0.1499E+02
  15.045  0.1224E+01  0.1500E+02
  15.055  0.1226E+01  0.1501E+02
  15.065  0.1228E+01  0.1503E+02
  15.075  0.1230E+01  0.1504E+02
  15.085  0.1231E+01  0.1505E+02
  15.095  0.1232E+01  0.1506E+02
  15.105  0.1234E+01  0.1508E+02
  15.115  0.1235E+01  0.1509E+02
  15.125  0.1235E+01  0.1510E+02
  15.135  0.1236E+01  0.1511E+02
  15.145  0.1236E+01  0.1513E+02
  15.155  0.1236E+01  0.1514E+02
  15.165  0.1236E+01  0.1515E+02
  15.175  0.1236E+01  0.1516E+02
  15.185  0.1235E+01  0.1518E+02
  15.195  0.1235E+01  0.1519E+02
  15.205  0.1233E+01  0.1520E+02
  15.215  0.1232E+01  0.1521E+02
  15.225  0.1230E+01  0.1522E+02
  15.235  0.1228E+01  0.1524E+02
  15.245  0.1226E+01  0.1525E+02
  15.255  0.1223E+01  0.1526E+02
  15.265  0.1220E+01  0.1527E+02
  15.275  0.1217E+01  0.1529E+02
  15.285  0.1213E+01  0.1530E+02
  15.295  0.1209E+01  0.1531E+02
  15.305  0.1205E+01  0.1532E+02
  15.315  0.1200E+01  0.1533E+02
  15.325  0.1195E+01  0.1535E+02
  15.335  0.1189E+01  0.1536E+02
  15.345  0.1183E+01  0.1537E+02
  15.355  0.1177E+01  0.1538E+02
  15.365  0.1171E+01  0.1539E+02
  15.375  0.1164E+01  0.1540E+02
  15.385  0.1157E+01  0.1542E+02
  15.395  0.1150E+01  0.1543E+02
  15.405  0.1142E+01  0.1544E+02
  15.415  0.1134E+01  0.1545E+02
  15.425  0.1126E+01  0.1546E+02
  15.435  0.1118E+01  0.1547E+02
  15.445  0.1109E+01  0.1548E+02
  15.455  0.1101E+01  0.1550E+02
  15.465  0.1092E+01  0.1551E+02
  15.475  0.1083E+01  0.1552E+02
  15.485  0.1074E+01  0.1553E+02
  15.495  0.1064E+01  0.1554E+02
  15.505  0.1055E+01  0.1555E+02
  15.515  0.1046E+01  0.1556E+02
  15.525  0.1036E+01  0.1557E+02
  15.535  0.1027E+01  0.1558E+02
  15.545  0.1017E+01  0.1559E+02
  15.555  0.1008E+01  0.1560E+02
  15.565  0.9985E+00  0.1561E+02
  15.575  0.9892E+00  0.1562E+02
  15.585  0.9799E+00  0.1563E+02
  15.595  0.9708E+00  0.1564E+02
  15.605  0.9617E+00  0.1565E+02
  15.615  0.9528E+00  0.1566E+02
  15.625  0.9441E+00  0.1567E+02
  15.635  0.9354E+00  0.1568E+02
  15.645  0.9270E+00  0.1569E+02
  15.655  0.9187E+00  0.1570E+02
  15.665  0.9105E+00  0.1571E+02
  15.675  0.9026E+00  0.1571E+02
  15.685  0.8948E+00  0.1572E+02
  15.695  0.8872E+00  0.1573E+02
  15.705  0.8799E+00  0.1574E+02
  15.715  0.8727E+00  0.1575E+02
  15.725  0.8657E+00  0.1576E+02
  15.735  0.8589E+00  0.1577E+02
  15.745  0.8522E+00  0.1578E+02
  15.755  0.8458E+00  0.1578E+02
  15.765  0.8396E+00  0.1579E+02
  15.775  0.8335E+00  0.1580E+02
  15.785  0.8276E+00  0.1581E+02
  15.795  0.8219E+00  0.1582E+02
  15.805  0.8163E+00  0.1583E+02
  15.815  0.8110E+00  0.1583E+02
  15.825  0.8057E+00  0.1584E+02
  15.835  0.8006E+00  0.1585E+02
  15.845  0.7957E+00  0.1586E+02
  15.855  0.7909E+00  0.1587E+02
  15.865  0.7862E+00  0.1587E+02
  15.875  0.7817E+00  0.1588E+02
  15.885  0.7773E+00  0.1589E+02
  15.895  0.7730E+00  0.1590E+02
  15.905  0.7688E+00  0.1590E+02
  15.915  0.7647E+00  0.1591E+02
  15.925  0.7608E+00  0.1592E+02
  15.935  0.7569E+00  0.1593E+02
  15.945  0.7532E+00  0.1593E+02
  15.955  0.7496E+00  0.1594E+02
  15.965  0.7461E+00  0.1595E+02
  15.975  0.7427E+00  0.1596E+02
  15.985  0.7394E+00  0.1596E+02
  15.995  0.7362E+00  0.1597E+02
  16.005  0.7331E+00  0.1598E+02
  16.015  0.7301E+00  0.1599E+02
  16.025  0.7273E+00  0.1599E+02
  16.035  0.7246E+00  0.1600E+02
  16.045  0.7220E+00  0.1601E+02
  16.055  0.7195E+00  0.1602E+02
  16.065  0.7172E+00  0.1602E+02
  16.075  0.7150E+00  0.1603E+02
  16.085  0.7129E+00  0.1604E+02
  16.095  0.7110E+00  0.1604E+02
  16.105  0.7092E+00  0.1605E+02
  16.115  0.7076E+00  0.1606E+02
  16.125  0.7062E+00  0.1606E+02
  16.135  0.7049E+00  0.1607E+02
  16.145  0.7038E+00  0.1608E+02
  16.155  0.7029E+00  0.1609E+02
  16.165  0.7021E+00  0.1609E+02
  16.175  0.7016E+00  0.1610E+02
  16.185  0.7012E+00  0.1611E+02
  16.195  0.7010E+00  0.1611E+02
  16.205  0.7010E+00  0.1612E+02
  16.215  0.7011E+00  0.1613E+02
  16.225  0.7015E+00  0.1614E+02
  16.235  0.7021E+00  0.1614E+02
  16.245  0.7029E+00  0.1615E+02
  16.255  0.7039E+00  0.1616E+02
  16.265  0.7050E+00  0.1616E+02
  16.275  0.7064E+00  0.1617E+02
  16.285  0.7080E+00  0.1618E+02
  16.295  0.7097E+00  0.1618E+02
  16.305  0.7117E+00  0.1619E+02
  16.315  0.7138E+00  0.1620E+02
  16.325  0.7162E+00  0.1621E+02
  16.335  0.7187E+00  0.1621E+02
  16.345  0.7213E+00  0.1622E+02
  16.355  0.7242E+00  0.1623E+02
  16.365  0.7272E+00  0.1623E+02
  16.375  0.7304E+00  0.1624E+02
  16.385  0.7337E+00  0.1625E+02
  16.395  0.7372E+00  0.1626E+02
  16.405  0.7408E+00  0.1626E+02
  16.415  0.7445E+00  0.1627E+02
  16.425  0.7483E+00  0.1628E+02
  16.435  0.7523E+00  0.1629E+02
  16.445  0.7563E+00  0.1629E+02
  16.455  0.7605E+00  0.1630E+02
  16.465  0.7647E+00  0.1631E+02
  16.475  0.7690E+00  0.1632E+02
  16.485  0.7734E+00  0.1632E+02
  16.495  0.7778E+00  0.1633E+02
  16.505  0.7822E+00  0.1634E+02
  16.515  0.7867E+00  0.1635E+02
  16.525  0.7912E+00  0.1636E+02
  16.535  0.7958E+00  0.1636E+02
  16.545  0.8003E+00  0.1637E+02
  16.555  0.8048E+00  0.1638E+02
  16.565  0.8094E+00  0.1639E+02
  16.575  0.8139E+00  0.1640E+02
  16.585  0.8184E+00  0.1640E+02
  16.595  0.8228E+00  0.1641E+02
  16.605  0.8272E+00  0.1642E+02
  16.615  0.8316E+00  0.1643E+02
  16.625  0.8359E+00  0.1644E+02
  16.635  0.8402E+00  0.1645E+02
  16.645  0.8444E+00  0.1645E+02
  16.655  0.8485E+00  0.1646E+02
  16.665  0.8526E+00  0.1647E+02
  16.675  0.8566E+00  0.1648E+02
  16.685  0.8606E+00  0.1649E+02
  16.695  0.8645E+00  0.1650E+02
  16.705  0.8683E+00  0.1651E+02
  16.715  0.8720E+00  0.1651E+02
  16.725  0.8757E+00  0.1652E+02
  16.735  0.8794E+00  0.1653E+02
  16.745  0.8829E+00  0.1654E+02
  16.755  0.8864E+00  0.1655E+02
  16.765  0.8899E+00  0.1656E+02
  16.775  0.8933E+00  0.1657E+02
  16.785  0.8966E+00  0.1658E+02
  16.795  0.8999E+00  0.1659E+02
  16.805  0.9032E+00  0.1659E+02
  16.815  0.9064E+00  0.1660E+02
  16.825  0.9096E+00  0.1661E+02
  16.835  0.9128E+00  0.1662E+02
  16.845  0.9160E+00  0.1663E+02
  16.855  0.9191E+00  0.1664E+02
  16.865  0.9222E+00  0.1665E+02
  16.875  0.9253E+00  0.1666E+02
  16.885  0.9284E+00  0.1667E+02
  16.895  0.9314E+00  0.1668E+02
  16.905  0.9345E+00  0.1669E+02
  16.915  0.9376E+00  0.1670E+02
  16.925  0.9406E+00  0.1671E+02
  16.935  0.9437E+00  0.1672E+02
  16.945  0.9467E+00  0.1672E+02
  16.955  0.9498E+00  0.1673E+02
  16.965  0.9528E+00  0.1674E+02
  16.975  0.9558E+00  0.1675E+02
  16.985  0.9589E+00  0.1676E+02
  16.995  0.9619E+00  0.1677E+02
  17.005  0.9649E+00  0.1678E+02
  17.015  0.9679E+00  0.1679E+02
  17.025  0.9709E+00  0.1680E+02
  17.035  0.9738E+00  0.1681E+02
  17.045  0.9768E+00  0.1682E+02
  17.055  0.9797E+00  0.1683E+02
  17.065  0.9825E+00  0.1684E+02
  17.075  0.9853E+00  0.1685E+02
  17.085  0.9881E+00  0.1686E+02
  17.095  0.9908E+00  0.1687E+02
  17.105  0.9935E+00  0.1688E+02
  17.115  0.9961E+00  0.1689E+02
  17.125  0.9987E+00  0.1690E+02
  17.135  0.1001E+01  0.1691E+02
  17.145  0.1004E+01  0.1692E+02
  17.155  0.1006E+01  0.1693E+02
  17.165  0.1008E+01  0.1694E+02
  17.175  0.1010E+01  0.1695E+02
  17.185  0.1012E+01  0.1696E+02
  17.195  0.1014E+01  0.1697E+02
  17.205  0.1016E+01  0.1698E+02
  17.215  0.1018E+01  0.1699E+02
  17.225  0.1019E+01  0.1700E+02
  17.235  0.1021E+01  0.1701E+02
  17.245  0.1022E+01  0.1702E+02
  17.255  0.1024E+01  0.1703E+02
  17.265  0.1025E+01  0.1704E+02
  17.275  0.1026E+01  0.1705E+02
  17.285  0.1027E+01  0.1706E+02
  17.295  0.1028E+01  0.1707E+02
  17.305  0.1029E+01  0.1708E+02
  17.315  0.1030E+01  0.1709E+02
  17.325  0.1030E+01  0.1710E+02
  17.335  0.1031E+01  0.1711E+02
  17.345  0.1032E+01  0.1712E+02
  17.355  0.1032E+01  0.1713E+02
  17.365  0.1032E+01  0.1715E+02
  17.375  0.1033E+01  0.1716E+02
  17.385  0.1033E+01  0.1717E+02
  17.395  0.1033E+01  0.1718E+02
  17.405  0.1033E+01  0.1719E+02
  17.415  0.1033E+01  0.1720E+02
  17.425  0.1033E+01  0.1721E+02
  17.435  0.1033E+01  0.1722E+02
  17.445  0.1033E+01  0.1723E+02
  17.455  0.1033E+01  0.1724E+02
  17.465  0.1032E+01  0.1725E+02
  17.475  0.1032E+01  0.1726E+02
  17.485  0.1032E+01  0.1727E+02
  17.495  0.1032E+01  0.1728E+02
  17.505  0.1031E+01  0.1729E+02
  17.515  0.1031E+01  0.1730E+02
  17.525  0.1031E+01  0.1731E+02
  17.535  0.1030E+01  0.1732E+02
  17.545  0.1030E+01  0.1733E+02
  17.555  0.1030E+01  0.1734E+02
  17.565  0.1029E+01  0.1735E+02
  17.575  0.1029E+01  0.1736E+02
  17.585  0.1029E+01  0.1737E+02
  17.595  0.1029E+01  0.1738E+02
  17.605  0.1028E+01  0.1739E+02
  17.615  0.1028E+01  0.1740E+02
  17.625  0.1028E+01  0.1741E+02
  17.635  0.1028E+01  0.1742E+02
  17.645  0.1028E+01  0.1743E+02
  17.655  0.1027E+01  0.1744E+02
  17.665  0.1027E+01  0.1745E+02
  17.675  0.1027E+01  0.1746E+02
  17.685  0.1027E+01  0.1747E+02
  17.695  0.1027E+01  0.1749E+02
  17.705  0.1027E+01  0.1750E+02
  17.715  0.1027E+01  0.1751E+02
  17.725  0.1027E+01  0.1752E+02
  17.735  0.1028E+01  0.1753E+02
  17.745  0.1028E+01  0.1754E+02
  17.755  0.1028E+01  0.1755E+02
  17.765  0.1028E+01  0.1756E+02
  17.775  0.1029E+01  0.1757E+02
  17.785  0.1029E+01  0.1758E+02
  17.795  0.1029E+01  0.1759E+02
  17.805  0.1030E+01  0.1760E+02
  17.815  0.1030E+01  0.1761E+02
  17.825  0.1030E+01  0.1762E+02
  17.835  0.1031E+01  0.1763E+02
  17.845  0.1031E+01  0.1764E+02
  17.855  0.1032E+01  0.1765E+02
  17.865  0.1032E+01  0.1766E+02
  17.875  0.1032E+01  0.1767E+02
  17.885  0.1033E+01  0.1768E+02
  17.895  0.1033E+01  0.1769E+02
  17.905  0.1033E+01  0.1770E+02
  17.915  0.1034E+01  0.1771E+02
  17.925  0.1034E+01  0.1772E+02
  17.935  0.1034E+01  0.1773E+02
  17.945  0.1034E+01  0.1774E+02
  17.955  0.1034E+01  0.1775E+02
  17.965  0.1033E+01  0.1776E+02
  17.975  0.1033E+01  0.1777E+02
  17.985  0.1033E+01  0.1778E+02
  17.995  0.1032E+01  0.1779E+02
  18.005  0.1031E+01  0.1780E+02
  18.015  0.1030E+01  0.1782E+02
  18.025  0.1029E+01  0.1783E+02
  18.035  0.1028E+01  0.1784E+02
  18.045  0.1026E+01  0.1785E+02
  18.055  0.1025E+01  0.1786E+02
  18.065  0.1023E+01  0.1787E+02
  18.075  0.1021E+01  0.1788E+02
  18.085  0.1018E+01  0.1789E+02
  18.095  0.1016E+01  0.1790E+02
  18.105  0.1013E+01  0.1791E+02
  18.115  0.1010E+01  0.1792E+02
  18.125  0.1007E+01  0.1793E+02
  18.135  0.1004E+01  0.1794E+02
  18.145  0.1000E+01  0.1795E+02
  18.155  0.9965E+00  0.1796E+02
  18.165  0.9926E+00  0.1797E+02
  18.175  0.9885E+00  0.1798E+02
  18.185  0.9843E+00  0.1799E+02
  18.195  0.9799E+00  0.1800E+02
  18.205  0.9753E+00  0.1801E+02
  18.215  0.9706E+00  0.1802E+02
  18.225  0.9659E+00  0.1803E+02
  18.235  0.9610E+00  0.1804E+02
  18.245  0.9561E+00  0.1804E+02
  18.255  0.9511E+00  0.1805E+02
  18.265  0.9460E+00  0.1806E+02
  18.275  0.9410E+00  0.1807E+02
  18.285  0.9359E+00  0.1808E+02
  18.295  0.9309E+00  0.1809E+02
  18.305  0.9259E+00  0.1810E+02
  18.315  0.9210E+00  0.1811E+02
  18.325  0.9161E+00  0.1812E+02
  18.335  0.9113E+00  0.1813E+02
  18.345  0.9067E+00  0.1814E+02
  18.355  0.9022E+00  0.1815E+02
  18.365  0.8978E+00  0.1816E+02
  18.375  0.8936E+00  0.1816E+02
  18.385  0.8896E+00  0.1817E+02
  18.395  0.8858E+00  0.1818E+02
  18.405  0.8822E+00  0.1819E+02
  18.415  0.8788E+00  0.1820E+02
  18.425  0.8756E+00  0.1821E+02
  18.435  0.8727E+00  0.1822E+02
  18.445  0.8700E+00  0.1823E+02
  18.455  0.8675E+00  0.1823E+02
  18.465  0.8653E+00  0.1824E+02
  18.475  0.8634E+00  0.1825E+02
  18.485  0.8617E+00  0.1826E+02
  18.495  0.8603E+00  0.1827E+02
  18.505  0.8592E+00  0.1828E+02
  18.515  0.8582E+00  0.1829E+02
  18.525  0.8576E+00  0.1830E+02
  18.535  0.8572E+00  0.1830E+02
  18.545  0.8570E+00  0.1831E+02
  18.555  0.8571E+00  0.1832E+02
  18.565  0.8574E+00  0.1833E+02
  18.575  0.8580E+00  0.1834E+02
  18.585  0.8587E+00  0.1835E+02
  18.595  0.8597E+00  0.1836E+02
  18.605  0.8608E+00  0.1836E+02
  18.615  0.8621E+00  0.1837E+02
  18.625  0.8637E+00  0.1838E+02
  18.635  0.8653E+00  0.1839E+02
  18.645  0.8672E+00  0.1840E+02
  18.655  0.8692E+00  0.1841E+02
  18.665  0.8713E+00  0.1842E+02
  18.675  0.8735E+00  0.1842E+02
  18.685  0.8759E+00  0.1843E+02
  18.695  0.8783E+00  0.1844E+02
  18.705  0.8809E+00  0.1845E+02
  18.715  0.8835E+00  0.1846E+02
  18.725  0.8862E+00  0.1847E+02
  18.735  0.8890E+00  0.1848E+02
  18.745  0.8918E+00  0.1849E+02
  18.755  0.8946E+00  0.1850E+02
  18.765  0.8975E+00  0.1850E+02
  18.775  0.9004E+00  0.1851E+02
  18.785  0.9034E+00  0.1852E+02
  18.795  0.9063E+00  0.1853E+02
  18.805  0.9092E+00  0.1854E+02
  18.815  0.9121E+00  0.1855E+02
  18.825  0.9150E+00  0.1856E+02
  18.835  0.9179E+00  0.1857E+02
  18.845  0.9207E+00  0.1858E+02
  18.855  0.9235E+00  0.1859E+02
  18.865  0.9263E+00  0.1860E+02
  18.875  0.9290E+00  0.1861E+02
  18.885  0.9316E+00  0.1861E+02
  18.895  0.9341E+00  0.1862E+02
  18.905  0.9366E+00  0.1863E+02
  18.915  0.9389E+00  0.1864E+02
  18.925  0.9412E+00  0.1865E+02
  18.935  0.9433E+00  0.1866E+02
  18.945  0.9454E+00  0.1867E+02
  18.955  0.9473E+00  0.1868E+02
  18.965  0.9491E+00  0.1869E+02
  18.975  0.9507E+00  0.1870E+02
  18.985  0.9522E+00  0.1871E+02
  18.995  0.9535E+00  0.1872E+02
  19.005  0.9547E+00  0.1873E+02
  19.015  0.9557E+00  0.1874E+02
  19.025  0.9565E+00  0.1875E+02
  19.035  0.9571E+00  0.1876E+02
  19.045  0.9575E+00  0.1877E+02
  19.055  0.9577E+00  0.1878E+02
  19.065  0.9577E+00  0.1879E+02
  19.075  0.9574E+00  0.1879E+02
  19.085  0.9570E+00  0.1880E+02
  19.095  0.9563E+00  0.1881E+02
  19.105  0.9554E+00  0.1882E+02
  19.115  0.9542E+00  0.1883E+02
  19.125  0.9528E+00  0.1884E+02
  19.135  0.9511E+00  0.1885E+02
  19.145  0.9492E+00  0.1886E+02
  19.155  0.9471E+00  0.1887E+02
  19.165  0.9447E+00  0.1888E+02
  19.175  0.9420E+00  0.1889E+02
  19.185  0.9392E+00  0.1890E+02
  19.195  0.9360E+00  0.1891E+02
  19.205  0.9327E+00  0.1892E+02
  19.215  0.9291E+00  0.1893E+02
  19.225  0.9253E+00  0.1894E+02
  19.235  0.9212E+00  0.1895E+02
  19.245  0.9170E+00  0.1895E+02
  19.255  0.9126E+00  0.1896E+02
  19.265  0.9080E+00  0.1897E+02
  19.275  0.9032E+00  0.1898E+02
  19.285  0.8983E+00  0.1899E+02
  19.295  0.8933E+00  0.1900E+02
  19.305  0.8881E+00  0.1901E+02
  19.315  0.8829E+00  0.1902E+02
  19.325  0.8775E+00  0.1903E+02
  19.335  0.8721E+00  0.1904E+02
  19.345  0.8667E+00  0.1904E+02
  19.355  0.8612E+00  0.1905E+02
  19.365  0.8557E+00  0.1906E+02
  19.375  0.8503E+00  0.1907E+02
  19.385  0.8449E+00  0.1908E+02
  19.395  0.8395E+00  0.1909E+02
  19.405  0.8343E+00  0.1909E+02
  19.415  0.8291E+00  0.1910E+02
  19.425  0.8241E+00  0.1911E+02
  19.435  0.8192E+00  0.1912E+02
  19.445  0.8145E+00  0.1913E+02
  19.455  0.8099E+00  0.1914E+02
  19.465  0.8056E+00  0.1914E+02
  19.475  0.8015E+00  0.1915E+02
  19.485  0.7976E+00  0.1916E+02
  19.495  0.7939E+00  0.1917E+02
  19.505  0.7905E+00  0.1918E+02
  19.515  0.7874E+00  0.1918E+02
  19.525  0.7846E+00  0.1919E+02
  19.535  0.7820E+00  0.1920E+02
  19.545  0.7797E+00  0.1921E+02
  19.555  0.7777E+00  0.1921E+02
  19.565  0.7761E+00  0.1922E+02
  19.575  0.7747E+00  0.1923E+02
  19.585  0.7736E+00  0.1924E+02
  19.595  0.7729E+00  0.1925E+02
  19.605  0.7724E+00  0.1925E+02
  19.615  0.7722E+00  0.1926E+02
  19.625  0.7723E+00  0.1927E+02
  19.635  0.7726E+00  0.1928E+02
  19.645  0.7733E+00  0.1928E+02
  19.655  0.7741E+00  0.1929E+02
  19.665  0.7752E+00  0.1930E+02
  19.675  0.7766E+00  0.1931E+02
  19.685  0.7781E+00  0.1932E+02
  19.695  0.7799E+00  0.1932E+02
  19.705  0.7818E+00  0.1933E+02
  19.715  0.7838E+00  0.1934E+02
  19.725  0.7860E+00  0.1935E+02
  19.735  0.7884E+00  0.1935E+02
  19.745  0.7908E+00  0.1936E+02
  19.755  0.7933E+00  0.1937E+02
  19.765  0.7959E+00  0.1938E+02
  19.775  0.7985E+00  0.1939E+02
  19.785  0.8011E+00  0.1939E+02
  19.795  0.8037E+00  0.1940E+02
  19.805  0.8063E+00  0.1941E+02
  19.815  0.8088E+00  0.1942E+02
  19.825  0.8113E+00  0.1943E+02
  19.835  0.8137E+00  0.1943E+02
  19.845  0.8160E+00  0.1944E+02
  19.855  0.8181E+00  0.1945E+02
  19.865  0.8202E+00  0.1946E+02
  19.875  0.8220E+00  0.1947E+02
  19.885  0.8237E+00  0.1948E+02
  19.895  0.8253E+00  0.1948E+02
  19.905  0.8266E+00  0.1949E+02
  19.915  0.8277E+00  0.1950E+02
  19.925  0.8285E+00  0.1951E+02
  19.935  0.8292E+00  0.1952E+02
  19.945  0.8296E+00  0.1953E+02
  19.955  0.8297E+00  0.1953E+02
  19.965  0.8295E+00  0.1954E+02
  19.975  0.8291E+00  0.1955E+02
  19.985  0.8283E+00  0.1956E+02
  19.995  0.8273E+00  0.1957E+02
  20.005  0.8260E+00  0.1958E+02
  20.015  0.8243E+00  0.1958E+02
  20.025  0.8224E+00  0.1959E+02
  20.035  0.8201E+00  0.1960E+02
  20.045  0.8175E+00  0.1961E+02
  20.055  0.8146E+00  0.1962E+02
  20.065  0.8114E+00  0.1962E+02
  20.075  0.8078E+00  0.1963E+02
  20.085  0.8039E+00  0.1964E+02
  20.095  0.7997E+00  0.1965E+02
  20.105  0.7952E+00  0.1966E+02
  20.115  0.7903E+00  0.1966E+02
  20.125  0.7851E+00  0.1967E+02
  20.135  0.7796E+00  0.1968E+02
  20.145  0.7738E+00  0.1969E+02
  20.155  0.7677E+00  0.1970E+02
  20.165  0.7613E+00  0.1970E+02
  20.175  0.7546E+00  0.1971E+02
  20.185  0.7475E+00  0.1972E+02
  20.195  0.7402E+00  0.1973E+02
  20.205  0.7326E+00  0.1973E+02
  20.215  0.7248E+00  0.1974E+02
  20.225  0.7166E+00  0.1975E+02
  20.235  0.7082E+00  0.1975E+02
  20.245  0.6996E+00  0.1976E+02
  20.255  0.6906E+00  0.1977E+02
  20.265  0.6815E+00  0.1977E+02
  20.275  0.6721E+00  0.1978E+02
  20.285  0.6625E+00  0.1979E+02
  20.295  0.6527E+00  0.1979E+02
  20.305  0.6427E+00  0.1980E+02
  20.315  0.6326E+00  0.1981E+02
  20.325  0.6222E+00  0.1981E+02
  20.335  0.6116E+00  0.1982E+02
  20.345  0.6009E+00  0.1983E+02
  20.355  0.5901E+00  0.1983E+02
  20.365  0.5791E+00  0.1984E+02
  20.375  0.5680E+00  0.1984E+02
  20.385  0.5568E+00  0.1985E+02
  20.395  0.5455E+00  0.1985E+02
  20.405  0.5341E+00  0.1986E+02
  20.415  0.5226E+00  0.1986E+02
  20.425  0.5110E+00  0.1987E+02
  20.435  0.4994E+00  0.1987E+02
  20.445  0.4877E+00  0.1988E+02
  20.455  0.4760E+00  0.1988E+02
  20.465  0.4643E+00  0.1989E+02
  20.475  0.4526E+00  0.1989E+02
  20.485  0.4409E+00  0.1990E+02
  20.495  0.4292E+00  0.1990E+02
  20.505  0.4175E+00  0.1991E+02
  20.515  0.4058E+00  0.1991E+02
  20.525  0.3942E+00  0.1991E+02
  20.535  0.3827E+00  0.1992E+02
  20.545  0.3712E+00  0.1992E+02
  20.555  0.3598E+00  0.1993E+02
  20.565  0.3485E+00  0.1993E+02
  20.575  0.3373E+00  0.1993E+02
  20.585  0.3262E+00  0.1994E+02
  20.595  0.3152E+00  0.1994E+02
  20.605  0.3043E+00  0.1994E+02
  20.615  0.2936E+00  0.1995E+02
  20.625  0.2830E+00  0.1995E+02
  20.635  0.2725E+00  0.1995E+02
  20.645  0.2623E+00  0.1995E+02
  20.655  0.2522E+00  0.1996E+02
  20.665  0.2422E+00  0.1996E+02
  20.675  0.2325E+00  0.1996E+02
  20.685  0.2229E+00  0.1996E+02
  20.695  0.2135E+00  0.1996E+02
  20.705  0.2044E+00  0.1997E+02
  20.715  0.1954E+00  0.1997E+02
  20.725  0.1867E+00  0.1997E+02
  20.735  0.1781E+00  0.1997E+02
  20.745  0.1698E+00  0.1997E+02
  20.755  0.1617E+00  0.1998E+02
  20.765  0.1539E+00  0.1998E+02
  20.775  0.1462E+00  0.1998E+02
  20.785  0.1388E+00  0.1998E+02
  20.795  0.1316E+00  0.1998E+02
  20.805  0.1247E+00  0.1998E+02
  20.815  0.1180E+00  0.1998E+02
  20.825  0.1115E+00  0.1999E+02
  20.835  0.1053E+00  0.1999E+02
  20.845  0.9929E-01  0.1999E+02
  20.855  0.9352E-01  0.1999E+02
  20.865  0.8798E-01  0.1999E+02
  20.875  0.8267E-01  0.1999E+02
  20.885  0.7759E-01  0.1999E+02
  20.895  0.7273E-01  0.1999E+02
  20.905  0.6809E-01  0.1999E+02
  20.915  0.6367E-01  0.1999E+02
  20.925  0.5945E-01  0.1999E+02
  20.935  0.5545E-01  0.1999E+02
  20.945  0.5165E-01  0.1999E+02
  20.955  0.4805E-01  0.1999E+02
  20.965  0.4464E-01  0.2000E+02
  20.975  0.4141E-01  0.2000E+02
  20.985  0.3837E-01  0.2000E+02
  20.995  0.3550E-01  0.2000E+02
  21.005  0.3281E-01  0.2000E+02
  21.015  0.3027E-01  0.2000E+02
  21.025  0.2789E-01  0.2000E+02
  21.035  0.2567E-01  0.2000E+02
  21.045  0.2359E-01  0.2000E+02
  21.055  0.2164E-01  0.2000E+02
  21.065  0.1983E-01  0.2000E+02
  21.075  0.1815E-01  0.2000E+02
  21.085  0.1658E-01  0.2000E+02
  21.095  0.1513E-01  0.2000E+02
  21.105  0.1378E-01  0.2000E+02
  21.115  0.1254E-01  0.2000E+02
  21.125  0.1139E-01  0.2000E+02
  21.135  0.1033E-01  0.2000E+02
  21.145  0.9355E-02  0.2000E+02
  21.155  0.8460E-02  0.2000E+02
  21.165  0.7639E-02  0.2000E+02
  21.175  0.6887E-02  0.2000E+02
  21.185  0.6200E-02  0.2000E+02
  21.195  0.5573E-02  0.2000E+02
  21.205  0.5001E-02  0.2000E+02
  21.215  0.4482E-02  0.2000E+02
  21.225  0.4010E-02  0.2000E+02
  21.235  0.3582E-02  0.2000E+02
  21.245  0.3195E-02  0.2000E+02
  21.255  0.2846E-02  0.2000E+02
  21.265  0.2530E-02  0.2000E+02
  21.275  0.2247E-02  0.2000E+02
  21.285  0.1991E-02  0.2000E+02
  21.295  0.1762E-02  0.2000E+02
  21.305  0.1557E-02  0.2000E+02
  21.315  0.1374E-02  0.2000E+02
  21.325  0.1210E-02  0.2000E+02
  21.335  0.1064E-02  0.2000E+02
  21.345  0.9344E-03  0.2000E+02
  21.355  0.8191E-03  0.2000E+02
  21.365  0.7169E-03  0.2000E+02
  21.375  0.6265E-03  0.2000E+02
  21.385  0.5465E-03  0.2000E+02
  21.395  0.4760E-03  0.2000E+02
  21.405  0.4140E-03  0.2000E+02
  21.415  0.3594E-03  0.2000E+02
  21.425  0.3115E-03  0.2000E+02
  21.435  0.2696E-03  0.2000E+02
  21.445  0.2329E-03  0.2000E+02
  21.455  0.2009E-03  0.2000E+02
  21.465  0.1730E-03  0.2000E+02
  21.475  0.1488E-03  0.2000E+02
  21.485  0.1277E-03  0.2000E+02
  21.495  0.1094E-03  0.2000E+02
  21.505  0.9362E-04  0.2000E+02
  21.515  0.7996E-04  0.2000E+02
  21.525  0.6819E-04  0.2000E+02
  21.535  0.5805E-04  0.2000E+02
  21.545  0.4934E-04  0.2000E+02
  21.555  0.4187E-04  0.2000E+02
  21.565  0.3547E-04  0.2000E+02
  21.575  0.3000E-04  0.2000E+02
  21.585  0.2533E-04  0.2000E+02
  21.595  0.2135E-04  0.2000E+02
  21.605  0.1797E-04  0.2000E+02
  21.615  0.1510E-04  0.2000E+02
  21.625  0.1266E-04  0.2000E+02
  21.635  0.1060E-04  0.2000E+02
  21.645  0.8863E-05  0.2000E+02
  21.655  0.7397E-05  0.2000E+02
