#  E (eV)   dos(E)     Int dos(E) EFermi =    5.956 eV
  -6.846  0.7965E-06  0.7965E-08
  -6.836  0.9620E-06  0.1759E-07
  -6.826  0.1160E-05  0.2919E-07
  -6.816  0.1396E-05  0.4315E-07
  -6.806  0.1678E-05  0.5993E-07
  -6.796  0.2014E-05  0.8007E-07
  -6.786  0.2413E-05  0.1042E-06
  -6.776  0.2886E-05  0.1331E-06
  -6.766  0.3446E-05  0.1675E-06
  -6.756  0.4108E-05  0.2086E-06
  -6.746  0.4890E-05  0.2575E-06
  -6.736  0.5811E-05  0.3156E-06
  -6.726  0.6895E-05  0.3846E-06
  -6.716  0.8168E-05  0.4662E-06
  -6.706  0.9660E-05  0.5628E-06
  -6.696  0.1141E-04  0.6769E-06
  -6.686  0.1345E-04  0.8114E-06
  -6.676  0.1583E-04  0.9697E-06
  -6.666  0.1860E-04  0.1156E-05
  -6.656  0.2182E-04  0.1374E-05
  -6.646  0.2557E-04  0.1630E-05
  -6.636  0.2990E-04  0.1929E-05
  -6.626  0.3492E-04  0.2278E-05
  -6.616  0.4071E-04  0.2685E-05
  -6.606  0.4739E-04  0.3159E-05
  -6.596  0.5507E-04  0.3709E-05
  -6.586  0.6391E-04  0.4349E-05
  -6.576  0.7404E-04  0.5089E-05
  -6.566  0.8565E-04  0.5945E-05
  -6.556  0.9892E-04  0.6935E-05
  -6.546  0.1141E-03  0.8075E-05
  -6.536  0.1313E-03  0.9389E-05
  -6.526  0.1510E-03  0.1090E-04
  -6.516  0.1733E-03  0.1263E-04
  -6.506  0.1986E-03  0.1462E-04
  -6.496  0.2272E-03  0.1689E-04
  -6.486  0.2596E-03  0.1948E-04
  -6.476  0.2961E-03  0.2245E-04
  -6.466  0.3372E-03  0.2582E-04
  -6.456  0.3835E-03  0.2965E-04
  -6.446  0.4355E-03  0.3401E-04
  -6.436  0.4937E-03  0.3895E-04
  -6.426  0.5589E-03  0.4453E-04
  -6.416  0.6317E-03  0.5085E-04
  -6.406  0.7129E-03  0.5798E-04
  -6.396  0.8033E-03  0.6601E-04
  -6.386  0.9039E-03  0.7505E-04
  -6.376  0.1016E-02  0.8521E-04
  -6.366  0.1139E-02  0.9660E-04
  -6.356  0.1276E-02  0.1094E-03
  -6.346  0.1427E-02  0.1236E-03
  -6.336  0.1594E-02  0.1396E-03
  -6.326  0.1777E-02  0.1573E-03
  -6.316  0.1979E-02  0.1771E-03
  -6.306  0.2200E-02  0.1991E-03
  -6.296  0.2443E-02  0.2236E-03
  -6.286  0.2708E-02  0.2507E-03
  -6.276  0.2998E-02  0.2806E-03
  -6.266  0.3314E-02  0.3138E-03
  -6.256  0.3658E-02  0.3504E-03
  -6.246  0.4032E-02  0.3907E-03
  -6.236  0.4438E-02  0.4351E-03
  -6.226  0.4877E-02  0.4838E-03
  -6.216  0.5353E-02  0.5374E-03
  -6.206  0.5867E-02  0.5960E-03
  -6.196  0.6421E-02  0.6602E-03
  -6.186  0.7017E-02  0.7304E-03
  -6.176  0.7658E-02  0.8070E-03
  -6.166  0.8346E-02  0.8904E-03
  -6.156  0.9083E-02  0.9813E-03
  -6.146  0.9872E-02  0.1080E-02
  -6.136  0.1071E-01  0.1187E-02
  -6.126  0.1161E-01  0.1303E-02
  -6.116  0.1257E-01  0.1429E-02
  -6.106  0.1359E-01  0.1565E-02
  -6.096  0.1467E-01  0.1712E-02
  -6.086  0.1581E-01  0.1870E-02
  -6.076  0.1703E-01  0.2040E-02
  -6.066  0.1831E-01  0.2223E-02
  -6.056  0.1966E-01  0.2420E-02
  -6.046  0.2109E-01  0.2631E-02
  -6.036  0.2259E-01  0.2856E-02
  -6.026  0.2416E-01  0.3098E-02
  -6.016  0.2581E-01  0.3356E-02
  -6.006  0.2754E-01  0.3632E-02
  -5.996  0.2935E-01  0.3925E-02
  -5.986  0.3125E-01  0.4238E-02
  -5.976  0.3322E-01  0.4570E-02
  -5.966  0.3527E-01  0.4922E-02
  -5.956  0.3741E-01  0.5297E-02
  -5.946  0.3963E-01  0.5693E-02
  -5.936  0.4193E-01  0.6112E-02
  -5.926  0.4431E-01  0.6555E-02
  -5.916  0.4677E-01  0.7023E-02
  -5.906  0.4932E-01  0.7516E-02
  -5.896  0.5194E-01  0.8035E-02
  -5.886  0.5464E-01  0.8582E-02
  -5.876  0.5742E-01  0.9156E-02
  -5.866  0.6028E-01  0.9759E-02
  -5.856  0.6321E-01  0.1039E-01
  -5.846  0.6621E-01  0.1105E-01
  -5.836  0.6928E-01  0.1175E-01
  -5.826  0.7242E-01  0.1247E-01
  -5.816  0.7562E-01  0.1323E-01
  -5.806  0.7888E-01  0.1401E-01
  -5.796  0.8221E-01  0.1484E-01
  -5.786  0.8559E-01  0.1569E-01
  -5.776  0.8902E-01  0.1658E-01
  -5.766  0.9251E-01  0.1751E-01
  -5.756  0.9604E-01  0.1847E-01
  -5.746  0.9961E-01  0.1946E-01
  -5.736  0.1032E+00  0.2050E-01
  -5.726  0.1069E+00  0.2157E-01
  -5.716  0.1106E+00  0.2267E-01
  -5.706  0.1143E+00  0.2381E-01
  -5.696  0.1180E+00  0.2499E-01
  -5.686  0.1218E+00  0.2621E-01
  -5.676  0.1255E+00  0.2747E-01
  -5.666  0.1293E+00  0.2876E-01
  -5.656  0.1331E+00  0.3009E-01
  -5.646  0.1370E+00  0.3146E-01
  -5.636  0.1408E+00  0.3287E-01
  -5.626  0.1446E+00  0.3431E-01
  -5.616  0.1484E+00  0.3580E-01
  -5.606  0.1522E+00  0.3732E-01
  -5.596  0.1560E+00  0.3888E-01
  -5.586  0.1598E+00  0.4048E-01
  -5.576  0.1636E+00  0.4212E-01
  -5.566  0.1674E+00  0.4379E-01
  -5.556  0.1712E+00  0.4550E-01
  -5.546  0.1749E+00  0.4725E-01
  -5.536  0.1786E+00  0.4904E-01
  -5.526  0.1823E+00  0.5086E-01
  -5.516  0.1860E+00  0.5272E-01
  -5.506  0.1896E+00  0.5462E-01
  -5.496  0.1933E+00  0.5655E-01
  -5.486  0.1968E+00  0.5852E-01
  -5.476  0.2004E+00  0.6052E-01
  -5.466  0.2039E+00  0.6256E-01
  -5.456  0.2074E+00  0.6464E-01
  -5.446  0.2109E+00  0.6675E-01
  -5.436  0.2144E+00  0.6889E-01
  -5.426  0.2178E+00  0.7107E-01
  -5.416  0.2211E+00  0.7328E-01
  -5.406  0.2245E+00  0.7552E-01
  -5.396  0.2278E+00  0.7780E-01
  -5.386  0.2311E+00  0.8011E-01
  -5.376  0.2343E+00  0.8245E-01
  -5.366  0.2375E+00  0.8483E-01
  -5.356  0.2407E+00  0.8724E-01
  -5.346  0.2438E+00  0.8967E-01
  -5.336  0.2470E+00  0.9214E-01
  -5.326  0.2501E+00  0.9464E-01
  -5.316  0.2531E+00  0.9718E-01
  -5.306  0.2561E+00  0.9974E-01
  -5.296  0.2591E+00  0.1023E+00
  -5.286  0.2621E+00  0.1049E+00
  -5.276  0.2650E+00  0.1076E+00
  -5.266  0.2680E+00  0.1103E+00
  -5.256  0.2709E+00  0.1130E+00
  -5.246  0.2737E+00  0.1157E+00
  -5.236  0.2766E+00  0.1185E+00
  -5.226  0.2794E+00  0.1213E+00
  -5.216  0.2822E+00  0.1241E+00
  -5.206  0.2849E+00  0.1270E+00
  -5.196  0.2877E+00  0.1298E+00
  -5.186  0.2904E+00  0.1327E+00
  -5.176  0.2931E+00  0.1357E+00
  -5.166  0.2958E+00  0.1386E+00
  -5.156  0.2985E+00  0.1416E+00
  -5.146  0.3011E+00  0.1446E+00
  -5.136  0.3038E+00  0.1477E+00
  -5.126  0.3064E+00  0.1507E+00
  -5.116  0.3090E+00  0.1538E+00
  -5.106  0.3116E+00  0.1569E+00
  -5.096  0.3141E+00  0.1601E+00
  -5.086  0.3167E+00  0.1632E+00
  -5.076  0.3192E+00  0.1664E+00
  -5.066  0.3218E+00  0.1696E+00
  -5.056  0.3243E+00  0.1729E+00
  -5.046  0.3268E+00  0.1762E+00
  -5.036  0.3293E+00  0.1795E+00
  -5.026  0.3318E+00  0.1828E+00
  -5.016  0.3343E+00  0.1861E+00
  -5.006  0.3367E+00  0.1895E+00
  -4.996  0.3392E+00  0.1929E+00
  -4.986  0.3416E+00  0.1963E+00
  -4.976  0.3441E+00  0.1997E+00
  -4.966  0.3465E+00  0.2032E+00
  -4.956  0.3489E+00  0.2067E+00
  -4.946  0.3513E+00  0.2102E+00
  -4.936  0.3537E+00  0.2137E+00
  -4.926  0.3561E+00  0.2173E+00
  -4.916  0.3585E+00  0.2209E+00
  -4.906  0.3609E+00  0.2245E+00
  -4.896  0.3633E+00  0.2281E+00
  -4.886  0.3657E+00  0.2318E+00
  -4.876  0.3680E+00  0.2355E+00
  -4.866  0.3704E+00  0.2392E+00
  -4.856  0.3728E+00  0.2429E+00
  -4.846  0.3751E+00  0.2466E+00
  -4.836  0.3775E+00  0.2504E+00
  -4.826  0.3799E+00  0.2542E+00
  -4.816  0.3822E+00  0.2580E+00
  -4.806  0.3846E+00  0.2619E+00
  -4.796  0.3869E+00  0.2658E+00
  -4.786  0.3892E+00  0.2696E+00
  -4.776  0.3916E+00  0.2736E+00
  -4.766  0.3939E+00  0.2775E+00
  -4.756  0.3963E+00  0.2815E+00
  -4.746  0.3986E+00  0.2854E+00
  -4.736  0.4010E+00  0.2895E+00
  -4.726  0.4033E+00  0.2935E+00
  -4.716  0.4056E+00  0.2975E+00
  -4.706  0.4080E+00  0.3016E+00
  -4.696  0.4103E+00  0.3057E+00
  -4.686  0.4127E+00  0.3099E+00
  -4.676  0.4150E+00  0.3140E+00
  -4.666  0.4174E+00  0.3182E+00
  -4.656  0.4197E+00  0.3224E+00
  -4.646  0.4221E+00  0.3266E+00
  -4.636  0.4244E+00  0.3308E+00
  -4.626  0.4268E+00  0.3351E+00
  -4.616  0.4291E+00  0.3394E+00
  -4.606  0.4315E+00  0.3437E+00
  -4.596  0.4339E+00  0.3481E+00
  -4.586  0.4362E+00  0.3524E+00
  -4.576  0.4386E+00  0.3568E+00
  -4.566  0.4410E+00  0.3612E+00
  -4.556  0.4434E+00  0.3656E+00
  -4.546  0.4458E+00  0.3701E+00
  -4.536  0.4482E+00  0.3746E+00
  -4.526  0.4506E+00  0.3791E+00
  -4.516  0.4530E+00  0.3836E+00
  -4.506  0.4554E+00  0.3882E+00
  -4.496  0.4578E+00  0.3928E+00
  -4.486  0.4603E+00  0.3974E+00
  -4.476  0.4627E+00  0.4020E+00
  -4.466  0.4652E+00  0.4066E+00
  -4.456  0.4676E+00  0.4113E+00
  -4.446  0.4701E+00  0.4160E+00
  -4.436  0.4726E+00  0.4207E+00
  -4.426  0.4751E+00  0.4255E+00
  -4.416  0.4776E+00  0.4303E+00
  -4.406  0.4801E+00  0.4351E+00
  -4.396  0.4826E+00  0.4399E+00
  -4.386  0.4852E+00  0.4447E+00
  -4.376  0.4877E+00  0.4496E+00
  -4.366  0.4903E+00  0.4545E+00
  -4.356  0.4929E+00  0.4594E+00
  -4.346  0.4955E+00  0.4644E+00
  -4.336  0.4981E+00  0.4694E+00
  -4.326  0.5008E+00  0.4744E+00
  -4.316  0.5034E+00  0.4794E+00
  -4.306  0.5061E+00  0.4845E+00
  -4.296  0.5088E+00  0.4896E+00
  -4.286  0.5115E+00  0.4947E+00
  -4.276  0.5143E+00  0.4998E+00
  -4.266  0.5171E+00  0.5050E+00
  -4.256  0.5199E+00  0.5102E+00
  -4.246  0.5227E+00  0.5154E+00
  -4.236  0.5255E+00  0.5207E+00
  -4.226  0.5284E+00  0.5260E+00
  -4.216  0.5313E+00  0.5313E+00
  -4.206  0.5342E+00  0.5366E+00
  -4.196  0.5372E+00  0.5420E+00
  -4.186  0.5402E+00  0.5474E+00
  -4.176  0.5432E+00  0.5528E+00
  -4.166  0.5463E+00  0.5583E+00
  -4.156  0.5494E+00  0.5638E+00
  -4.146  0.5525E+00  0.5693E+00
  -4.136  0.5557E+00  0.5749E+00
  -4.126  0.5589E+00  0.5805E+00
  -4.116  0.5621E+00  0.5861E+00
  -4.106  0.5654E+00  0.5917E+00
  -4.096  0.5688E+00  0.5974E+00
  -4.086  0.5721E+00  0.6031E+00
  -4.076  0.5756E+00  0.6089E+00
  -4.066  0.5790E+00  0.6147E+00
  -4.056  0.5826E+00  0.6205E+00
  -4.046  0.5861E+00  0.6264E+00
  -4.036  0.5897E+00  0.6323E+00
  -4.026  0.5934E+00  0.6382E+00
  -4.016  0.5971E+00  0.6442E+00
  -4.006  0.6008E+00  0.6502E+00
  -3.996  0.6047E+00  0.6562E+00
  -3.986  0.6085E+00  0.6623E+00
  -3.976  0.6124E+00  0.6684E+00
  -3.966  0.6164E+00  0.6746E+00
  -3.956  0.6204E+00  0.6808E+00
  -3.946  0.6244E+00  0.6871E+00
  -3.936  0.6286E+00  0.6933E+00
  -3.926  0.6327E+00  0.6997E+00
  -3.916  0.6369E+00  0.7060E+00
  -3.906  0.6411E+00  0.7124E+00
  -3.896  0.6454E+00  0.7189E+00
  -3.886  0.6497E+00  0.7254E+00
  -3.876  0.6541E+00  0.7319E+00
  -3.866  0.6585E+00  0.7385E+00
  -3.856  0.6629E+00  0.7452E+00
  -3.846  0.6674E+00  0.7518E+00
  -3.836  0.6719E+00  0.7585E+00
  -3.826  0.6764E+00  0.7653E+00
  -3.816  0.6809E+00  0.7721E+00
  -3.806  0.6854E+00  0.7790E+00
  -3.796  0.6899E+00  0.7859E+00
  -3.786  0.6945E+00  0.7928E+00
  -3.776  0.6990E+00  0.7998E+00
  -3.766  0.7035E+00  0.8068E+00
  -3.756  0.7080E+00  0.8139E+00
  -3.746  0.7125E+00  0.8210E+00
  -3.736  0.7170E+00  0.8282E+00
  -3.726  0.7214E+00  0.8354E+00
  -3.716  0.7258E+00  0.8427E+00
  -3.706  0.7302E+00  0.8500E+00
  -3.696  0.7345E+00  0.8573E+00
  -3.686  0.7387E+00  0.8647E+00
  -3.676  0.7429E+00  0.8722E+00
  -3.666  0.7470E+00  0.8796E+00
  -3.656  0.7510E+00  0.8871E+00
  -3.646  0.7550E+00  0.8947E+00
  -3.636  0.7588E+00  0.9023E+00
  -3.626  0.7626E+00  0.9099E+00
  -3.616  0.7663E+00  0.9176E+00
  -3.606  0.7698E+00  0.9253E+00
  -3.596  0.7732E+00  0.9330E+00
  -3.586  0.7766E+00  0.9408E+00
  -3.576  0.7797E+00  0.9486E+00
  -3.566  0.7828E+00  0.9564E+00
  -3.556  0.7857E+00  0.9642E+00
  -3.546  0.7885E+00  0.9721E+00
  -3.536  0.7911E+00  0.9800E+00
  -3.526  0.7936E+00  0.9880E+00
  -3.516  0.7959E+00  0.9959E+00
  -3.506  0.7981E+00  0.1004E+01
  -3.496  0.8001E+00  0.1012E+01
  -3.486  0.8019E+00  0.1020E+01
  -3.476  0.8036E+00  0.1028E+01
  -3.466  0.8051E+00  0.1036E+01
  -3.456  0.8064E+00  0.1044E+01
  -3.446  0.8076E+00  0.1052E+01
  -3.436  0.8086E+00  0.1060E+01
  -3.426  0.8094E+00  0.1068E+01
  -3.416  0.8100E+00  0.1076E+01
  -3.406  0.8105E+00  0.1085E+01
  -3.396  0.8108E+00  0.1093E+01
  -3.386  0.8110E+00  0.1101E+01
  -3.376  0.8110E+00  0.1109E+01
  -3.366  0.8108E+00  0.1117E+01
  -3.356  0.8104E+00  0.1125E+01
  -3.346  0.8099E+00  0.1133E+01
  -3.336  0.8093E+00  0.1141E+01
  -3.326  0.8085E+00  0.1149E+01
  -3.316  0.8076E+00  0.1157E+01
  -3.306  0.8065E+00  0.1165E+01
  -3.296  0.8053E+00  0.1174E+01
  -3.286  0.8039E+00  0.1182E+01
  -3.276  0.8024E+00  0.1190E+01
  -3.266  0.8008E+00  0.1198E+01
  -3.256  0.7991E+00  0.1206E+01
  -3.246  0.7972E+00  0.1214E+01
  -3.236  0.7953E+00  0.1222E+01
  -3.226  0.7932E+00  0.1229E+01
  -3.216  0.7910E+00  0.1237E+01
  -3.206  0.7888E+00  0.1245E+01
  -3.196  0.7864E+00  0.1253E+01
  -3.186  0.7840E+00  0.1261E+01
  -3.176  0.7815E+00  0.1269E+01
  -3.166  0.7789E+00  0.1277E+01
  -3.156  0.7762E+00  0.1284E+01
  -3.146  0.7734E+00  0.1292E+01
  -3.136  0.7706E+00  0.1300E+01
  -3.126  0.7678E+00  0.1307E+01
  -3.116  0.7648E+00  0.1315E+01
  -3.106  0.7618E+00  0.1323E+01
  -3.096  0.7588E+00  0.1330E+01
  -3.086  0.7557E+00  0.1338E+01
  -3.076  0.7526E+00  0.1345E+01
  -3.066  0.7494E+00  0.1353E+01
  -3.056  0.7461E+00  0.1360E+01
  -3.046  0.7429E+00  0.1368E+01
  -3.036  0.7396E+00  0.1375E+01
  -3.026  0.7363E+00  0.1383E+01
  -3.016  0.7329E+00  0.1390E+01
  -3.006  0.7295E+00  0.1397E+01
  -2.996  0.7261E+00  0.1404E+01
  -2.986  0.7227E+00  0.1412E+01
  -2.976  0.7192E+00  0.1419E+01
  -2.966  0.7157E+00  0.1426E+01
  -2.956  0.7122E+00  0.1433E+01
  -2.946  0.7087E+00  0.1440E+01
  -2.936  0.7052E+00  0.1447E+01
  -2.926  0.7016E+00  0.1454E+01
  -2.916  0.6980E+00  0.1461E+01
  -2.906  0.6945E+00  0.1468E+01
  -2.896  0.6909E+00  0.1475E+01
  -2.886  0.6872E+00  0.1482E+01
  -2.876  0.6836E+00  0.1489E+01
  -2.866  0.6800E+00  0.1496E+01
  -2.856  0.6763E+00  0.1502E+01
  -2.846  0.6727E+00  0.1509E+01
  -2.836  0.6690E+00  0.1516E+01
  -2.826  0.6653E+00  0.1522E+01
  -2.816  0.6616E+00  0.1529E+01
  -2.806  0.6579E+00  0.1536E+01
  -2.796  0.6542E+00  0.1542E+01
  -2.786  0.6505E+00  0.1549E+01
  -2.776  0.6468E+00  0.1555E+01
  -2.766  0.6431E+00  0.1562E+01
  -2.756  0.6393E+00  0.1568E+01
  -2.746  0.6356E+00  0.1574E+01
  -2.736  0.6318E+00  0.1581E+01
  -2.726  0.6280E+00  0.1587E+01
  -2.716  0.6242E+00  0.1593E+01
  -2.706  0.6204E+00  0.1599E+01
  -2.696  0.6166E+00  0.1606E+01
  -2.686  0.6128E+00  0.1612E+01
  -2.676  0.6090E+00  0.1618E+01
  -2.666  0.6051E+00  0.1624E+01
  -2.656  0.6013E+00  0.1630E+01
  -2.646  0.5974E+00  0.1636E+01
  -2.636  0.5935E+00  0.1642E+01
  -2.626  0.5896E+00  0.1648E+01
  -2.616  0.5857E+00  0.1653E+01
  -2.606  0.5818E+00  0.1659E+01
  -2.596  0.5778E+00  0.1665E+01
  -2.586  0.5739E+00  0.1671E+01
  -2.576  0.5699E+00  0.1677E+01
  -2.566  0.5659E+00  0.1682E+01
  -2.556  0.5619E+00  0.1688E+01
  -2.546  0.5579E+00  0.1693E+01
  -2.536  0.5538E+00  0.1699E+01
  -2.526  0.5497E+00  0.1704E+01
  -2.516  0.5457E+00  0.1710E+01
  -2.506  0.5416E+00  0.1715E+01
  -2.496  0.5374E+00  0.1721E+01
  -2.486  0.5333E+00  0.1726E+01
  -2.476  0.5291E+00  0.1731E+01
  -2.466  0.5249E+00  0.1737E+01
  -2.456  0.5207E+00  0.1742E+01
  -2.446  0.5164E+00  0.1747E+01
  -2.436  0.5121E+00  0.1752E+01
  -2.426  0.5078E+00  0.1757E+01
  -2.416  0.5035E+00  0.1762E+01
  -2.406  0.4992E+00  0.1767E+01
  -2.396  0.4948E+00  0.1772E+01
  -2.386  0.4904E+00  0.1777E+01
  -2.376  0.4859E+00  0.1782E+01
  -2.366  0.4814E+00  0.1787E+01
  -2.356  0.4769E+00  0.1791E+01
  -2.346  0.4724E+00  0.1796E+01
  -2.336  0.4678E+00  0.1801E+01
  -2.326  0.4632E+00  0.1805E+01
  -2.316  0.4586E+00  0.1810E+01
  -2.306  0.4539E+00  0.1815E+01
  -2.296  0.4492E+00  0.1819E+01
  -2.286  0.4444E+00  0.1824E+01
  -2.276  0.4397E+00  0.1828E+01
  -2.266  0.4349E+00  0.1832E+01
  -2.256  0.4300E+00  0.1837E+01
  -2.246  0.4251E+00  0.1841E+01
  -2.236  0.4202E+00  0.1845E+01
  -2.226  0.4153E+00  0.1849E+01
  -2.216  0.4103E+00  0.1853E+01
  -2.206  0.4053E+00  0.1857E+01
  -2.196  0.4002E+00  0.1861E+01
  -2.186  0.3951E+00  0.1865E+01
  -2.176  0.3900E+00  0.1869E+01
  -2.166  0.3849E+00  0.1873E+01
  -2.156  0.3797E+00  0.1877E+01
  -2.146  0.3745E+00  0.1881E+01
  -2.136  0.3693E+00  0.1884E+01
  -2.126  0.3641E+00  0.1888E+01
  -2.116  0.3588E+00  0.1891E+01
  -2.106  0.3536E+00  0.1895E+01
  -2.096  0.3483E+00  0.1899E+01
  -2.086  0.3430E+00  0.1902E+01
  -2.076  0.3378E+00  0.1905E+01
  -2.066  0.3325E+00  0.1909E+01
  -2.056  0.3272E+00  0.1912E+01
  -2.046  0.3220E+00  0.1915E+01
  -2.036  0.3167E+00  0.1918E+01
  -2.026  0.3115E+00  0.1921E+01
  -2.016  0.3063E+00  0.1924E+01
  -2.006  0.3012E+00  0.1928E+01
  -1.996  0.2961E+00  0.1930E+01
  -1.986  0.2910E+00  0.1933E+01
  -1.976  0.2860E+00  0.1936E+01
  -1.966  0.2811E+00  0.1939E+01
  -1.956  0.2762E+00  0.1942E+01
  -1.946  0.2714E+00  0.1945E+01
  -1.936  0.2667E+00  0.1947E+01
  -1.926  0.2621E+00  0.1950E+01
  -1.916  0.2576E+00  0.1952E+01
  -1.906  0.2532E+00  0.1955E+01
  -1.896  0.2489E+00  0.1957E+01
  -1.886  0.2447E+00  0.1960E+01
  -1.876  0.2406E+00  0.1962E+01
  -1.866  0.2367E+00  0.1965E+01
  -1.856  0.2330E+00  0.1967E+01
  -1.846  0.2294E+00  0.1969E+01
  -1.836  0.2259E+00  0.1972E+01
  -1.826  0.2227E+00  0.1974E+01
  -1.816  0.2196E+00  0.1976E+01
  -1.806  0.2166E+00  0.1978E+01
  -1.796  0.2139E+00  0.1980E+01
  -1.786  0.2114E+00  0.1982E+01
  -1.776  0.2090E+00  0.1984E+01
  -1.766  0.2069E+00  0.1987E+01
  -1.756  0.2050E+00  0.1989E+01
  -1.746  0.2032E+00  0.1991E+01
  -1.736  0.2018E+00  0.1993E+01
  -1.726  0.2005E+00  0.1995E+01
  -1.716  0.1994E+00  0.1997E+01
  -1.706  0.1986E+00  0.1999E+01
  -1.696  0.1980E+00  0.2001E+01
  -1.686  0.1977E+00  0.2003E+01
  -1.676  0.1976E+00  0.2005E+01
  -1.666  0.1977E+00  0.2007E+01
  -1.656  0.1981E+00  0.2008E+01
  -1.646  0.1987E+00  0.2010E+01
  -1.636  0.1995E+00  0.2012E+01
  -1.626  0.2006E+00  0.2014E+01
  -1.616  0.2019E+00  0.2016E+01
  -1.606  0.2035E+00  0.2019E+01
  -1.596  0.2053E+00  0.2021E+01
  -1.586  0.2073E+00  0.2023E+01
  -1.576  0.2096E+00  0.2025E+01
  -1.566  0.2120E+00  0.2027E+01
  -1.556  0.2148E+00  0.2029E+01
  -1.546  0.2177E+00  0.2031E+01
  -1.536  0.2209E+00  0.2033E+01
  -1.526  0.2243E+00  0.2036E+01
  -1.516  0.2279E+00  0.2038E+01
  -1.506  0.2317E+00  0.2040E+01
  -1.496  0.2357E+00  0.2043E+01
  -1.486  0.2399E+00  0.2045E+01
  -1.476  0.2444E+00  0.2047E+01
  -1.466  0.2490E+00  0.2050E+01
  -1.456  0.2539E+00  0.2052E+01
  -1.446  0.2589E+00  0.2055E+01
  -1.436  0.2642E+00  0.2058E+01
  -1.426  0.2697E+00  0.2060E+01
  -1.416  0.2753E+00  0.2063E+01
  -1.406  0.2812E+00  0.2066E+01
  -1.396  0.2872E+00  0.2069E+01
  -1.386  0.2934E+00  0.2072E+01
  -1.376  0.2999E+00  0.2075E+01
  -1.366  0.3065E+00  0.2078E+01
  -1.356  0.3133E+00  0.2081E+01
  -1.346  0.3204E+00  0.2084E+01
  -1.336  0.3276E+00  0.2087E+01
  -1.326  0.3351E+00  0.2091E+01
  -1.316  0.3427E+00  0.2094E+01
  -1.306  0.3506E+00  0.2098E+01
  -1.296  0.3587E+00  0.2101E+01
  -1.286  0.3670E+00  0.2105E+01
  -1.276  0.3755E+00  0.2109E+01
  -1.266  0.3843E+00  0.2113E+01
  -1.256  0.3932E+00  0.2117E+01
  -1.246  0.4025E+00  0.2121E+01
  -1.236  0.4119E+00  0.2125E+01
  -1.226  0.4216E+00  0.2129E+01
  -1.216  0.4315E+00  0.2133E+01
  -1.206  0.4417E+00  0.2138E+01
  -1.196  0.4521E+00  0.2142E+01
  -1.186  0.4627E+00  0.2147E+01
  -1.176  0.4736E+00  0.2151E+01
  -1.166  0.4848E+00  0.2156E+01
  -1.156  0.4962E+00  0.2161E+01
  -1.146  0.5078E+00  0.2166E+01
  -1.136  0.5197E+00  0.2172E+01
  -1.126  0.5318E+00  0.2177E+01
  -1.116  0.5441E+00  0.2182E+01
  -1.106  0.5566E+00  0.2188E+01
  -1.096  0.5693E+00  0.2194E+01
  -1.086  0.5823E+00  0.2199E+01
  -1.076  0.5954E+00  0.2205E+01
  -1.066  0.6087E+00  0.2211E+01
  -1.056  0.6221E+00  0.2218E+01
  -1.046  0.6357E+00  0.2224E+01
  -1.036  0.6495E+00  0.2231E+01
  -1.026  0.6633E+00  0.2237E+01
  -1.016  0.6772E+00  0.2244E+01
  -1.006  0.6912E+00  0.2251E+01
  -0.996  0.7052E+00  0.2258E+01
  -0.986  0.7192E+00  0.2265E+01
  -0.976  0.7332E+00  0.2272E+01
  -0.966  0.7472E+00  0.2280E+01
  -0.956  0.7611E+00  0.2288E+01
  -0.946  0.7749E+00  0.2295E+01
  -0.936  0.7886E+00  0.2303E+01
  -0.926  0.8022E+00  0.2311E+01
  -0.916  0.8155E+00  0.2319E+01
  -0.906  0.8287E+00  0.2328E+01
  -0.896  0.8416E+00  0.2336E+01
  -0.886  0.8542E+00  0.2345E+01
  -0.876  0.8665E+00  0.2353E+01
  -0.866  0.8785E+00  0.2362E+01
  -0.856  0.8901E+00  0.2371E+01
  -0.846  0.9013E+00  0.2380E+01
  -0.836  0.9121E+00  0.2389E+01
  -0.826  0.9224E+00  0.2398E+01
  -0.816  0.9323E+00  0.2408E+01
  -0.806  0.9416E+00  0.2417E+01
  -0.796  0.9504E+00  0.2427E+01
  -0.786  0.9587E+00  0.2436E+01
  -0.776  0.9664E+00  0.2446E+01
  -0.766  0.9735E+00  0.2456E+01
  -0.756  0.9800E+00  0.2465E+01
  -0.746  0.9859E+00  0.2475E+01
  -0.736  0.9912E+00  0.2485E+01
  -0.726  0.9958E+00  0.2495E+01
  -0.716  0.9998E+00  0.2505E+01
  -0.706  0.1003E+01  0.2515E+01
  -0.696  0.1006E+01  0.2525E+01
  -0.686  0.1008E+01  0.2535E+01
  -0.676  0.1009E+01  0.2545E+01
  -0.666  0.1010E+01  0.2555E+01
  -0.656  0.1010E+01  0.2565E+01
  -0.646  0.1010E+01  0.2576E+01
  -0.636  0.1009E+01  0.2586E+01
  -0.626  0.1007E+01  0.2596E+01
  -0.616  0.1005E+01  0.2606E+01
  -0.606  0.1002E+01  0.2616E+01
  -0.596  0.9983E+00  0.2626E+01
  -0.586  0.9944E+00  0.2636E+01
  -0.576  0.9900E+00  0.2646E+01
  -0.566  0.9851E+00  0.2655E+01
  -0.556  0.9798E+00  0.2665E+01
  -0.546  0.9740E+00  0.2675E+01
  -0.536  0.9679E+00  0.2685E+01
  -0.526  0.9613E+00  0.2694E+01
  -0.516  0.9545E+00  0.2704E+01
  -0.506  0.9473E+00  0.2713E+01
  -0.496  0.9398E+00  0.2723E+01
  -0.486  0.9320E+00  0.2732E+01
  -0.476  0.9241E+00  0.2741E+01
  -0.466  0.9159E+00  0.2750E+01
  -0.456  0.9075E+00  0.2760E+01
  -0.446  0.8990E+00  0.2769E+01
  -0.436  0.8903E+00  0.2777E+01
  -0.426  0.8815E+00  0.2786E+01
  -0.416  0.8727E+00  0.2795E+01
  -0.406  0.8637E+00  0.2804E+01
  -0.396  0.8548E+00  0.2812E+01
  -0.386  0.8458E+00  0.2821E+01
  -0.376  0.8368E+00  0.2829E+01
  -0.366  0.8278E+00  0.2837E+01
  -0.356  0.8189E+00  0.2845E+01
  -0.346  0.8100E+00  0.2854E+01
  -0.336  0.8011E+00  0.2862E+01
  -0.326  0.7923E+00  0.2869E+01
  -0.316  0.7837E+00  0.2877E+01
  -0.306  0.7751E+00  0.2885E+01
  -0.296  0.7666E+00  0.2893E+01
  -0.286  0.7582E+00  0.2900E+01
  -0.276  0.7499E+00  0.2908E+01
  -0.266  0.7418E+00  0.2915E+01
  -0.256  0.7338E+00  0.2923E+01
  -0.246  0.7259E+00  0.2930E+01
  -0.236  0.7181E+00  0.2937E+01
  -0.226  0.7105E+00  0.2944E+01
  -0.216  0.7031E+00  0.2951E+01
  -0.206  0.6957E+00  0.2958E+01
  -0.196  0.6886E+00  0.2965E+01
  -0.186  0.6815E+00  0.2972E+01
  -0.176  0.6746E+00  0.2979E+01
  -0.166  0.6679E+00  0.2985E+01
  -0.156  0.6613E+00  0.2992E+01
  -0.146  0.6548E+00  0.2998E+01
  -0.136  0.6485E+00  0.3005E+01
  -0.126  0.6423E+00  0.3011E+01
  -0.116  0.6362E+00  0.3018E+01
  -0.106  0.6303E+00  0.3024E+01
  -0.096  0.6245E+00  0.3030E+01
  -0.086  0.6188E+00  0.3036E+01
  -0.076  0.6132E+00  0.3043E+01
  -0.066  0.6078E+00  0.3049E+01
  -0.056  0.6024E+00  0.3055E+01
  -0.046  0.5972E+00  0.3061E+01
  -0.036  0.5921E+00  0.3067E+01
  -0.026  0.5871E+00  0.3072E+01
  -0.016  0.5822E+00  0.3078E+01
  -0.006  0.5774E+00  0.3084E+01
   0.004  0.5726E+00  0.3090E+01
   0.014  0.5680E+00  0.3095E+01
   0.024  0.5635E+00  0.3101E+01
   0.034  0.5590E+00  0.3107E+01
   0.044  0.5546E+00  0.3112E+01
   0.054  0.5503E+00  0.3118E+01
   0.064  0.5461E+00  0.3123E+01
   0.074  0.5419E+00  0.3129E+01
   0.084  0.5379E+00  0.3134E+01
   0.094  0.5338E+00  0.3139E+01
   0.104  0.5299E+00  0.3145E+01
   0.114  0.5260E+00  0.3150E+01
   0.124  0.5222E+00  0.3155E+01
   0.134  0.5184E+00  0.3160E+01
   0.144  0.5147E+00  0.3165E+01
   0.154  0.5111E+00  0.3170E+01
   0.164  0.5075E+00  0.3176E+01
   0.174  0.5040E+00  0.3181E+01
   0.184  0.5005E+00  0.3186E+01
   0.194  0.4970E+00  0.3191E+01
   0.204  0.4937E+00  0.3196E+01
   0.214  0.4903E+00  0.3200E+01
   0.224  0.4870E+00  0.3205E+01
   0.234  0.4838E+00  0.3210E+01
   0.244  0.4805E+00  0.3215E+01
   0.254  0.4774E+00  0.3220E+01
   0.264  0.4742E+00  0.3224E+01
   0.274  0.4711E+00  0.3229E+01
   0.284  0.4681E+00  0.3234E+01
   0.294  0.4650E+00  0.3238E+01
   0.304  0.4620E+00  0.3243E+01
   0.314  0.4591E+00  0.3248E+01
   0.324  0.4561E+00  0.3252E+01
   0.334  0.4532E+00  0.3257E+01
   0.344  0.4504E+00  0.3261E+01
   0.354  0.4475E+00  0.3266E+01
   0.364  0.4447E+00  0.3270E+01
   0.374  0.4419E+00  0.3275E+01
   0.384  0.4392E+00  0.3279E+01
   0.394  0.4364E+00  0.3283E+01
   0.404  0.4337E+00  0.3288E+01
   0.414  0.4310E+00  0.3292E+01
   0.424  0.4284E+00  0.3296E+01
   0.434  0.4257E+00  0.3301E+01
   0.444  0.4231E+00  0.3305E+01
   0.454  0.4205E+00  0.3309E+01
   0.464  0.4180E+00  0.3313E+01
   0.474  0.4154E+00  0.3317E+01
   0.484  0.4129E+00  0.3321E+01
   0.494  0.4104E+00  0.3326E+01
   0.504  0.4079E+00  0.3330E+01
   0.514  0.4055E+00  0.3334E+01
   0.524  0.4030E+00  0.3338E+01
   0.534  0.4006E+00  0.3342E+01
   0.544  0.3982E+00  0.3346E+01
   0.554  0.3959E+00  0.3350E+01
   0.564  0.3935E+00  0.3354E+01
   0.574  0.3912E+00  0.3358E+01
   0.584  0.3889E+00  0.3361E+01
   0.594  0.3866E+00  0.3365E+01
   0.604  0.3844E+00  0.3369E+01
   0.614  0.3821E+00  0.3373E+01
   0.624  0.3799E+00  0.3377E+01
   0.634  0.3777E+00  0.3381E+01
   0.644  0.3756E+00  0.3384E+01
   0.654  0.3734E+00  0.3388E+01
   0.664  0.3713E+00  0.3392E+01
   0.674  0.3692E+00  0.3395E+01
   0.684  0.3671E+00  0.3399E+01
   0.694  0.3650E+00  0.3403E+01
   0.704  0.3630E+00  0.3406E+01
   0.714  0.3609E+00  0.3410E+01
   0.724  0.3589E+00  0.3414E+01
   0.734  0.3569E+00  0.3417E+01
   0.744  0.3550E+00  0.3421E+01
   0.754  0.3530E+00  0.3424E+01
   0.764  0.3510E+00  0.3428E+01
   0.774  0.3491E+00  0.3431E+01
   0.784  0.3472E+00  0.3435E+01
   0.794  0.3453E+00  0.3438E+01
   0.804  0.3434E+00  0.3442E+01
   0.814  0.3415E+00  0.3445E+01
   0.824  0.3396E+00  0.3448E+01
   0.834  0.3378E+00  0.3452E+01
   0.844  0.3359E+00  0.3455E+01
   0.854  0.3341E+00  0.3458E+01
   0.864  0.3322E+00  0.3462E+01
   0.874  0.3304E+00  0.3465E+01
   0.884  0.3286E+00  0.3468E+01
   0.894  0.3268E+00  0.3472E+01
   0.904  0.3250E+00  0.3475E+01
   0.914  0.3232E+00  0.3478E+01
   0.924  0.3215E+00  0.3481E+01
   0.934  0.3197E+00  0.3485E+01
   0.944  0.3180E+00  0.3488E+01
   0.954  0.3163E+00  0.3491E+01
   0.964  0.3146E+00  0.3494E+01
   0.974  0.3129E+00  0.3497E+01
   0.984  0.3112E+00  0.3500E+01
   0.994  0.3096E+00  0.3503E+01
   1.004  0.3080E+00  0.3506E+01
   1.014  0.3064E+00  0.3510E+01
   1.024  0.3048E+00  0.3513E+01
   1.034  0.3033E+00  0.3516E+01
   1.044  0.3018E+00  0.3519E+01
   1.054  0.3004E+00  0.3522E+01
   1.064  0.2990E+00  0.3525E+01
   1.074  0.2976E+00  0.3528E+01
   1.084  0.2963E+00  0.3531E+01
   1.094  0.2951E+00  0.3534E+01
   1.104  0.2939E+00  0.3536E+01
   1.114  0.2928E+00  0.3539E+01
   1.124  0.2917E+00  0.3542E+01
   1.134  0.2908E+00  0.3545E+01
   1.144  0.2899E+00  0.3548E+01
   1.154  0.2890E+00  0.3551E+01
   1.164  0.2883E+00  0.3554E+01
   1.174  0.2877E+00  0.3557E+01
   1.184  0.2871E+00  0.3560E+01
   1.194  0.2867E+00  0.3562E+01
   1.204  0.2864E+00  0.3565E+01
   1.214  0.2862E+00  0.3568E+01
   1.224  0.2861E+00  0.3571E+01
   1.234  0.2862E+00  0.3574E+01
   1.244  0.2864E+00  0.3577E+01
   1.254  0.2868E+00  0.3580E+01
   1.264  0.2873E+00  0.3583E+01
   1.274  0.2880E+00  0.3585E+01
   1.284  0.2888E+00  0.3588E+01
   1.294  0.2898E+00  0.3591E+01
   1.304  0.2911E+00  0.3594E+01
   1.314  0.2925E+00  0.3597E+01
   1.324  0.2941E+00  0.3600E+01
   1.334  0.2960E+00  0.3603E+01
   1.344  0.2980E+00  0.3606E+01
   1.354  0.3004E+00  0.3609E+01
   1.364  0.3029E+00  0.3612E+01
   1.374  0.3058E+00  0.3615E+01
   1.384  0.3089E+00  0.3618E+01
   1.394  0.3122E+00  0.3621E+01
   1.404  0.3159E+00  0.3624E+01
   1.414  0.3199E+00  0.3628E+01
   1.424  0.3242E+00  0.3631E+01
   1.434  0.3288E+00  0.3634E+01
   1.444  0.3337E+00  0.3637E+01
   1.454  0.3390E+00  0.3641E+01
   1.464  0.3446E+00  0.3644E+01
   1.474  0.3506E+00  0.3648E+01
   1.484  0.3569E+00  0.3651E+01
   1.494  0.3636E+00  0.3655E+01
   1.504  0.3707E+00  0.3659E+01
   1.514  0.3782E+00  0.3662E+01
   1.524  0.3860E+00  0.3666E+01
   1.534  0.3942E+00  0.3670E+01
   1.544  0.4028E+00  0.3674E+01
   1.554  0.4118E+00  0.3678E+01
   1.564  0.4212E+00  0.3683E+01
   1.574  0.4309E+00  0.3687E+01
   1.584  0.4411E+00  0.3691E+01
   1.594  0.4516E+00  0.3696E+01
   1.604  0.4624E+00  0.3701E+01
   1.614  0.4737E+00  0.3705E+01
   1.624  0.4852E+00  0.3710E+01
   1.634  0.4971E+00  0.3715E+01
   1.644  0.5094E+00  0.3720E+01
   1.654  0.5219E+00  0.3725E+01
   1.664  0.5347E+00  0.3731E+01
   1.674  0.5478E+00  0.3736E+01
   1.684  0.5612E+00  0.3742E+01
   1.694  0.5747E+00  0.3748E+01
   1.704  0.5885E+00  0.3753E+01
   1.714  0.6025E+00  0.3759E+01
   1.724  0.6167E+00  0.3766E+01
   1.734  0.6310E+00  0.3772E+01
   1.744  0.6454E+00  0.3778E+01
   1.754  0.6599E+00  0.3785E+01
   1.764  0.6744E+00  0.3792E+01
   1.774  0.6890E+00  0.3799E+01
   1.784  0.7036E+00  0.3806E+01
   1.794  0.7182E+00  0.3813E+01
   1.804  0.7328E+00  0.3820E+01
   1.814  0.7472E+00  0.3828E+01
   1.824  0.7616E+00  0.3835E+01
   1.834  0.7758E+00  0.3843E+01
   1.844  0.7899E+00  0.3851E+01
   1.854  0.8038E+00  0.3859E+01
   1.864  0.8175E+00  0.3867E+01
   1.874  0.8310E+00  0.3875E+01
   1.884  0.8442E+00  0.3884E+01
   1.894  0.8571E+00  0.3892E+01
   1.904  0.8697E+00  0.3901E+01
   1.914  0.8820E+00  0.3910E+01
   1.924  0.8940E+00  0.3919E+01
   1.934  0.9056E+00  0.3928E+01
   1.944  0.9168E+00  0.3937E+01
   1.954  0.9277E+00  0.3946E+01
   1.964  0.9382E+00  0.3956E+01
   1.974  0.9482E+00  0.3965E+01
   1.984  0.9579E+00  0.3975E+01
   1.994  0.9671E+00  0.3985E+01
   2.004  0.9759E+00  0.3994E+01
   2.014  0.9843E+00  0.4004E+01
   2.024  0.9923E+00  0.4014E+01
   2.034  0.9999E+00  0.4024E+01
   2.044  0.1007E+01  0.4034E+01
   2.054  0.1014E+01  0.4044E+01
   2.064  0.1020E+01  0.4054E+01
   2.074  0.1026E+01  0.4065E+01
   2.084  0.1031E+01  0.4075E+01
   2.094  0.1037E+01  0.4085E+01
   2.104  0.1041E+01  0.4096E+01
   2.114  0.1046E+01  0.4106E+01
   2.124  0.1050E+01  0.4117E+01
   2.134  0.1053E+01  0.4127E+01
   2.144  0.1057E+01  0.4138E+01
   2.154  0.1060E+01  0.4148E+01
   2.164  0.1063E+01  0.4159E+01
   2.174  0.1065E+01  0.4170E+01
   2.184  0.1067E+01  0.4180E+01
   2.194  0.1069E+01  0.4191E+01
   2.204  0.1071E+01  0.4202E+01
   2.214  0.1073E+01  0.4213E+01
   2.224  0.1074E+01  0.4223E+01
   2.234  0.1075E+01  0.4234E+01
   2.244  0.1076E+01  0.4245E+01
   2.254  0.1077E+01  0.4256E+01
   2.264  0.1078E+01  0.4266E+01
   2.274  0.1079E+01  0.4277E+01
   2.284  0.1079E+01  0.4288E+01
   2.294  0.1080E+01  0.4299E+01
   2.304  0.1080E+01  0.4310E+01
   2.314  0.1080E+01  0.4320E+01
   2.324  0.1081E+01  0.4331E+01
   2.334  0.1081E+01  0.4342E+01
   2.344  0.1081E+01  0.4353E+01
   2.354  0.1081E+01  0.4364E+01
   2.364  0.1081E+01  0.4374E+01
   2.374  0.1082E+01  0.4385E+01
   2.384  0.1082E+01  0.4396E+01
   2.394  0.1082E+01  0.4407E+01
   2.404  0.1082E+01  0.4418E+01
   2.414  0.1083E+01  0.4428E+01
   2.424  0.1083E+01  0.4439E+01
   2.434  0.1083E+01  0.4450E+01
   2.444  0.1084E+01  0.4461E+01
   2.454  0.1084E+01  0.4472E+01
   2.464  0.1085E+01  0.4483E+01
   2.474  0.1086E+01  0.4494E+01
   2.484  0.1086E+01  0.4504E+01
   2.494  0.1087E+01  0.4515E+01
   2.504  0.1088E+01  0.4526E+01
   2.514  0.1089E+01  0.4537E+01
   2.524  0.1090E+01  0.4548E+01
   2.534  0.1091E+01  0.4559E+01
   2.544  0.1092E+01  0.4570E+01
   2.554  0.1093E+01  0.4581E+01
   2.564  0.1095E+01  0.4592E+01
   2.574  0.1096E+01  0.4603E+01
   2.584  0.1098E+01  0.4614E+01
   2.594  0.1100E+01  0.4625E+01
   2.604  0.1101E+01  0.4636E+01
   2.614  0.1103E+01  0.4647E+01
   2.624  0.1106E+01  0.4658E+01
   2.634  0.1108E+01  0.4669E+01
   2.644  0.1110E+01  0.4680E+01
   2.654  0.1113E+01  0.4691E+01
   2.664  0.1115E+01  0.4702E+01
   2.674  0.1118E+01  0.4713E+01
   2.684  0.1121E+01  0.4725E+01
   2.694  0.1124E+01  0.4736E+01
   2.704  0.1127E+01  0.4747E+01
   2.714  0.1131E+01  0.4758E+01
   2.724  0.1134E+01  0.4770E+01
   2.734  0.1138E+01  0.4781E+01
   2.744  0.1142E+01  0.4793E+01
   2.754  0.1146E+01  0.4804E+01
   2.764  0.1150E+01  0.4815E+01
   2.774  0.1154E+01  0.4827E+01
   2.784  0.1159E+01  0.4839E+01
   2.794  0.1163E+01  0.4850E+01
   2.804  0.1168E+01  0.4862E+01
   2.814  0.1173E+01  0.4874E+01
   2.824  0.1178E+01  0.4885E+01
   2.834  0.1184E+01  0.4897E+01
   2.844  0.1189E+01  0.4909E+01
   2.854  0.1194E+01  0.4921E+01
   2.864  0.1200E+01  0.4933E+01
   2.874  0.1206E+01  0.4945E+01
   2.884  0.1212E+01  0.4957E+01
   2.894  0.1218E+01  0.4969E+01
   2.904  0.1224E+01  0.4982E+01
   2.914  0.1230E+01  0.4994E+01
   2.924  0.1236E+01  0.5006E+01
   2.934  0.1243E+01  0.5019E+01
   2.944  0.1249E+01  0.5031E+01
   2.954  0.1256E+01  0.5044E+01
   2.964  0.1262E+01  0.5056E+01
   2.974  0.1269E+01  0.5069E+01
   2.984  0.1275E+01  0.5082E+01
   2.994  0.1282E+01  0.5095E+01
   3.004  0.1289E+01  0.5108E+01
   3.014  0.1295E+01  0.5121E+01
   3.024  0.1302E+01  0.5134E+01
   3.034  0.1308E+01  0.5147E+01
   3.044  0.1315E+01  0.5160E+01
   3.054  0.1321E+01  0.5173E+01
   3.064  0.1328E+01  0.5186E+01
   3.074  0.1334E+01  0.5200E+01
   3.084  0.1340E+01  0.5213E+01
   3.094  0.1347E+01  0.5227E+01
   3.104  0.1353E+01  0.5240E+01
   3.114  0.1359E+01  0.5254E+01
   3.124  0.1364E+01  0.5267E+01
   3.134  0.1370E+01  0.5281E+01
   3.144  0.1375E+01  0.5295E+01
   3.154  0.1381E+01  0.5309E+01
   3.164  0.1386E+01  0.5322E+01
   3.174  0.1391E+01  0.5336E+01
   3.184  0.1396E+01  0.5350E+01
   3.194  0.1401E+01  0.5364E+01
   3.204  0.1405E+01  0.5378E+01
   3.214  0.1410E+01  0.5392E+01
   3.224  0.1414E+01  0.5407E+01
   3.234  0.1418E+01  0.5421E+01
   3.244  0.1422E+01  0.5435E+01
   3.254  0.1425E+01  0.5449E+01
   3.264  0.1429E+01  0.5463E+01
   3.274  0.1432E+01  0.5478E+01
   3.284  0.1435E+01  0.5492E+01
   3.294  0.1438E+01  0.5507E+01
   3.304  0.1441E+01  0.5521E+01
   3.314  0.1443E+01  0.5535E+01
   3.324  0.1445E+01  0.5550E+01
   3.334  0.1448E+01  0.5564E+01
   3.344  0.1450E+01  0.5579E+01
   3.354  0.1452E+01  0.5593E+01
   3.364  0.1453E+01  0.5608E+01
   3.374  0.1455E+01  0.5622E+01
   3.384  0.1456E+01  0.5637E+01
   3.394  0.1457E+01  0.5652E+01
   3.404  0.1458E+01  0.5666E+01
   3.414  0.1459E+01  0.5681E+01
   3.424  0.1460E+01  0.5695E+01
   3.434  0.1460E+01  0.5710E+01
   3.444  0.1461E+01  0.5725E+01
   3.454  0.1461E+01  0.5739E+01
   3.464  0.1461E+01  0.5754E+01
   3.474  0.1461E+01  0.5768E+01
   3.484  0.1461E+01  0.5783E+01
   3.494  0.1460E+01  0.5798E+01
   3.504  0.1460E+01  0.5812E+01
   3.514  0.1459E+01  0.5827E+01
   3.524  0.1459E+01  0.5841E+01
   3.534  0.1458E+01  0.5856E+01
   3.544  0.1457E+01  0.5870E+01
   3.554  0.1456E+01  0.5885E+01
   3.564  0.1454E+01  0.5900E+01
   3.574  0.1453E+01  0.5914E+01
   3.584  0.1452E+01  0.5929E+01
   3.594  0.1450E+01  0.5943E+01
   3.604  0.1448E+01  0.5958E+01
   3.614  0.1446E+01  0.5972E+01
   3.624  0.1445E+01  0.5987E+01
   3.634  0.1443E+01  0.6001E+01
   3.644  0.1440E+01  0.6015E+01
   3.654  0.1438E+01  0.6030E+01
   3.664  0.1436E+01  0.6044E+01
   3.674  0.1434E+01  0.6058E+01
   3.684  0.1431E+01  0.6073E+01
   3.694  0.1429E+01  0.6087E+01
   3.704  0.1426E+01  0.6101E+01
   3.714  0.1424E+01  0.6116E+01
   3.724  0.1421E+01  0.6130E+01
   3.734  0.1418E+01  0.6144E+01
   3.744  0.1416E+01  0.6158E+01
   3.754  0.1413E+01  0.6172E+01
   3.764  0.1410E+01  0.6186E+01
   3.774  0.1407E+01  0.6200E+01
   3.784  0.1404E+01  0.6214E+01
   3.794  0.1401E+01  0.6228E+01
   3.804  0.1399E+01  0.6242E+01
   3.814  0.1396E+01  0.6256E+01
   3.824  0.1393E+01  0.6270E+01
   3.834  0.1390E+01  0.6284E+01
   3.844  0.1387E+01  0.6298E+01
   3.854  0.1384E+01  0.6312E+01
   3.864  0.1381E+01  0.6326E+01
   3.874  0.1378E+01  0.6339E+01
   3.884  0.1375E+01  0.6353E+01
   3.894  0.1373E+01  0.6367E+01
   3.904  0.1370E+01  0.6381E+01
   3.914  0.1367E+01  0.6394E+01
   3.924  0.1364E+01  0.6408E+01
   3.934  0.1361E+01  0.6422E+01
   3.944  0.1358E+01  0.6435E+01
   3.954  0.1356E+01  0.6449E+01
   3.964  0.1353E+01  0.6462E+01
   3.974  0.1350E+01  0.6476E+01
   3.984  0.1347E+01  0.6489E+01
   3.994  0.1344E+01  0.6503E+01
   4.004  0.1342E+01  0.6516E+01
   4.014  0.1339E+01  0.6529E+01
   4.024  0.1336E+01  0.6543E+01
   4.034  0.1334E+01  0.6556E+01
   4.044  0.1331E+01  0.6569E+01
   4.054  0.1328E+01  0.6583E+01
   4.064  0.1325E+01  0.6596E+01
   4.074  0.1323E+01  0.6609E+01
   4.084  0.1320E+01  0.6622E+01
   4.094  0.1317E+01  0.6636E+01
   4.104  0.1315E+01  0.6649E+01
   4.114  0.1312E+01  0.6662E+01
   4.124  0.1309E+01  0.6675E+01
   4.134  0.1306E+01  0.6688E+01
   4.144  0.1304E+01  0.6701E+01
   4.154  0.1301E+01  0.6714E+01
   4.164  0.1298E+01  0.6727E+01
   4.174  0.1295E+01  0.6740E+01
   4.184  0.1293E+01  0.6753E+01
   4.194  0.1290E+01  0.6766E+01
   4.204  0.1287E+01  0.6779E+01
   4.214  0.1284E+01  0.6792E+01
   4.224  0.1282E+01  0.6804E+01
   4.234  0.1279E+01  0.6817E+01
   4.244  0.1276E+01  0.6830E+01
   4.254  0.1273E+01  0.6843E+01
   4.264  0.1270E+01  0.6855E+01
   4.274  0.1267E+01  0.6868E+01
   4.284  0.1264E+01  0.6881E+01
   4.294  0.1261E+01  0.6893E+01
   4.304  0.1258E+01  0.6906E+01
   4.314  0.1255E+01  0.6918E+01
   4.324  0.1252E+01  0.6931E+01
   4.334  0.1248E+01  0.6943E+01
   4.344  0.1245E+01  0.6956E+01
   4.354  0.1242E+01  0.6968E+01
   4.364  0.1238E+01  0.6981E+01
   4.374  0.1235E+01  0.6993E+01
   4.384  0.1231E+01  0.7005E+01
   4.394  0.1228E+01  0.7018E+01
   4.404  0.1224E+01  0.7030E+01
   4.414  0.1220E+01  0.7042E+01
   4.424  0.1216E+01  0.7054E+01
   4.434  0.1212E+01  0.7066E+01
   4.444  0.1208E+01  0.7078E+01
   4.454  0.1204E+01  0.7090E+01
   4.464  0.1199E+01  0.7102E+01
   4.474  0.1195E+01  0.7114E+01
   4.484  0.1190E+01  0.7126E+01
   4.494  0.1185E+01  0.7138E+01
   4.504  0.1180E+01  0.7150E+01
   4.514  0.1175E+01  0.7162E+01
   4.524  0.1170E+01  0.7173E+01
   4.534  0.1164E+01  0.7185E+01
   4.544  0.1158E+01  0.7197E+01
   4.554  0.1153E+01  0.7208E+01
   4.564  0.1147E+01  0.7220E+01
   4.574  0.1140E+01  0.7231E+01
   4.584  0.1134E+01  0.7242E+01
   4.594  0.1128E+01  0.7254E+01
   4.604  0.1121E+01  0.7265E+01
   4.614  0.1114E+01  0.7276E+01
   4.624  0.1107E+01  0.7287E+01
   4.634  0.1100E+01  0.7298E+01
   4.644  0.1092E+01  0.7309E+01
   4.654  0.1085E+01  0.7320E+01
   4.664  0.1077E+01  0.7331E+01
   4.674  0.1069E+01  0.7341E+01
   4.684  0.1061E+01  0.7352E+01
   4.694  0.1052E+01  0.7362E+01
   4.704  0.1044E+01  0.7373E+01
   4.714  0.1035E+01  0.7383E+01
   4.724  0.1026E+01  0.7393E+01
   4.734  0.1017E+01  0.7404E+01
   4.744  0.1008E+01  0.7414E+01
   4.754  0.9991E+00  0.7424E+01
   4.764  0.9897E+00  0.7434E+01
   4.774  0.9801E+00  0.7443E+01
   4.784  0.9705E+00  0.7453E+01
   4.794  0.9607E+00  0.7463E+01
   4.804  0.9508E+00  0.7472E+01
   4.814  0.9409E+00  0.7482E+01
   4.824  0.9308E+00  0.7491E+01
   4.834  0.9206E+00  0.7500E+01
   4.844  0.9104E+00  0.7509E+01
   4.854  0.9001E+00  0.7518E+01
   4.864  0.8897E+00  0.7527E+01
   4.874  0.8793E+00  0.7536E+01
   4.884  0.8688E+00  0.7545E+01
   4.894  0.8583E+00  0.7553E+01
   4.904  0.8478E+00  0.7562E+01
   4.914  0.8372E+00  0.7570E+01
   4.924  0.8267E+00  0.7578E+01
   4.934  0.8161E+00  0.7586E+01
   4.944  0.8055E+00  0.7595E+01
   4.954  0.7949E+00  0.7602E+01
   4.964  0.7844E+00  0.7610E+01
   4.974  0.7739E+00  0.7618E+01
   4.984  0.7634E+00  0.7626E+01
   4.994  0.7529E+00  0.7633E+01
   5.004  0.7425E+00  0.7641E+01
   5.014  0.7321E+00  0.7648E+01
   5.024  0.7218E+00  0.7655E+01
   5.034  0.7115E+00  0.7662E+01
   5.044  0.7013E+00  0.7669E+01
   5.054  0.6912E+00  0.7676E+01
   5.064  0.6811E+00  0.7683E+01
   5.074  0.6711E+00  0.7690E+01
   5.084  0.6612E+00  0.7696E+01
   5.094  0.6514E+00  0.7703E+01
   5.104  0.6416E+00  0.7709E+01
   5.114  0.6320E+00  0.7716E+01
   5.124  0.6224E+00  0.7722E+01
   5.134  0.6129E+00  0.7728E+01
   5.144  0.6036E+00  0.7734E+01
   5.154  0.5943E+00  0.7740E+01
   5.164  0.5851E+00  0.7746E+01
   5.174  0.5760E+00  0.7752E+01
   5.184  0.5670E+00  0.7757E+01
   5.194  0.5581E+00  0.7763E+01
   5.204  0.5494E+00  0.7768E+01
   5.214  0.5407E+00  0.7774E+01
   5.224  0.5321E+00  0.7779E+01
   5.234  0.5236E+00  0.7784E+01
   5.244  0.5152E+00  0.7789E+01
   5.254  0.5070E+00  0.7794E+01
   5.264  0.4988E+00  0.7799E+01
   5.274  0.4907E+00  0.7804E+01
   5.284  0.4827E+00  0.7809E+01
   5.294  0.4749E+00  0.7814E+01
   5.304  0.4671E+00  0.7819E+01
   5.314  0.4594E+00  0.7823E+01
   5.324  0.4518E+00  0.7828E+01
   5.334  0.4443E+00  0.7832E+01
   5.344  0.4369E+00  0.7837E+01
   5.354  0.4296E+00  0.7841E+01
   5.364  0.4224E+00  0.7845E+01
   5.374  0.4152E+00  0.7849E+01
   5.384  0.4082E+00  0.7853E+01
   5.394  0.4012E+00  0.7857E+01
   5.404  0.3943E+00  0.7861E+01
   5.414  0.3875E+00  0.7865E+01
   5.424  0.3807E+00  0.7869E+01
   5.434  0.3741E+00  0.7873E+01
   5.444  0.3675E+00  0.7876E+01
   5.454  0.3609E+00  0.7880E+01
   5.464  0.3544E+00  0.7883E+01
   5.474  0.3480E+00  0.7887E+01
   5.484  0.3416E+00  0.7890E+01
   5.494  0.3353E+00  0.7894E+01
   5.504  0.3291E+00  0.7897E+01
   5.514  0.3229E+00  0.7900E+01
   5.524  0.3167E+00  0.7903E+01
   5.534  0.3106E+00  0.7907E+01
   5.544  0.3045E+00  0.7910E+01
   5.554  0.2985E+00  0.7913E+01
   5.564  0.2925E+00  0.7915E+01
   5.574  0.2865E+00  0.7918E+01
   5.584  0.2805E+00  0.7921E+01
   5.594  0.2746E+00  0.7924E+01
   5.604  0.2688E+00  0.7927E+01
   5.614  0.2629E+00  0.7929E+01
   5.624  0.2571E+00  0.7932E+01
   5.634  0.2513E+00  0.7934E+01
   5.644  0.2455E+00  0.7937E+01
   5.654  0.2398E+00  0.7939E+01
   5.664  0.2340E+00  0.7941E+01
   5.674  0.2283E+00  0.7944E+01
   5.684  0.2227E+00  0.7946E+01
   5.694  0.2170E+00  0.7948E+01
   5.704  0.2114E+00  0.7950E+01
   5.714  0.2058E+00  0.7952E+01
   5.724  0.2003E+00  0.7954E+01
   5.734  0.1948E+00  0.7956E+01
   5.744  0.1893E+00  0.7958E+01
   5.754  0.1838E+00  0.7960E+01
   5.764  0.1784E+00  0.7962E+01
   5.774  0.1731E+00  0.7964E+01
   5.784  0.1677E+00  0.7965E+01
   5.794  0.1625E+00  0.7967E+01
   5.804  0.1573E+00  0.7968E+01
   5.814  0.1521E+00  0.7970E+01
   5.824  0.1470E+00  0.7971E+01
   5.834  0.1420E+00  0.7973E+01
   5.844  0.1370E+00  0.7974E+01
   5.854  0.1321E+00  0.7976E+01
   5.864  0.1273E+00  0.7977E+01
   5.874  0.1225E+00  0.7978E+01
   5.884  0.1179E+00  0.7979E+01
   5.894  0.1133E+00  0.7980E+01
   5.904  0.1088E+00  0.7981E+01
   5.914  0.1044E+00  0.7982E+01
   5.924  0.1001E+00  0.7983E+01
   5.934  0.9588E-01  0.7984E+01
   5.944  0.9178E-01  0.7985E+01
   5.954  0.8779E-01  0.7986E+01
   5.964  0.8390E-01  0.7987E+01
   5.974  0.8013E-01  0.7988E+01
   5.984  0.7647E-01  0.7989E+01
   5.994  0.7293E-01  0.7989E+01
   6.004  0.6951E-01  0.7990E+01
   6.014  0.6621E-01  0.7991E+01
   6.024  0.6303E-01  0.7991E+01
   6.034  0.5998E-01  0.7992E+01
   6.044  0.5706E-01  0.7993E+01
   6.054  0.5427E-01  0.7993E+01
   6.064  0.5161E-01  0.7994E+01
   6.074  0.4908E-01  0.7994E+01
   6.084  0.4668E-01  0.7995E+01
   6.094  0.4443E-01  0.7995E+01
   6.104  0.4230E-01  0.7995E+01
   6.114  0.4032E-01  0.7996E+01
   6.124  0.3847E-01  0.7996E+01
   6.134  0.3676E-01  0.7997E+01
   6.144  0.3519E-01  0.7997E+01
   6.154  0.3376E-01  0.7997E+01
   6.164  0.3247E-01  0.7998E+01
   6.174  0.3132E-01  0.7998E+01
   6.184  0.3032E-01  0.7998E+01
   6.194  0.2946E-01  0.7998E+01
   6.204  0.2874E-01  0.7999E+01
   6.214  0.2817E-01  0.7999E+01
   6.224  0.2774E-01  0.7999E+01
   6.234  0.2746E-01  0.8000E+01
   6.244  0.2732E-01  0.8000E+01
   6.254  0.2733E-01  0.8000E+01
   6.264  0.2749E-01  0.8000E+01
   6.274  0.2780E-01  0.8001E+01
   6.284  0.2826E-01  0.8001E+01
   6.294  0.2887E-01  0.8001E+01
   6.304  0.2963E-01  0.8002E+01
   6.314  0.3054E-01  0.8002E+01
   6.324  0.3161E-01  0.8002E+01
   6.334  0.3283E-01  0.8003E+01
   6.344  0.3421E-01  0.8003E+01
   6.354  0.3574E-01  0.8003E+01
   6.364  0.3743E-01  0.8004E+01
   6.374  0.3927E-01  0.8004E+01
   6.384  0.4128E-01  0.8004E+01
   6.394  0.4344E-01  0.8005E+01
   6.404  0.4576E-01  0.8005E+01
   6.414  0.4825E-01  0.8006E+01
   6.424  0.5089E-01  0.8006E+01
   6.434  0.5369E-01  0.8007E+01
   6.444  0.5666E-01  0.8007E+01
   6.454  0.5978E-01  0.8008E+01
   6.464  0.6307E-01  0.8009E+01
   6.474  0.6651E-01  0.8009E+01
   6.484  0.7011E-01  0.8010E+01
   6.494  0.7387E-01  0.8011E+01
   6.504  0.7779E-01  0.8011E+01
   6.514  0.8186E-01  0.8012E+01
   6.524  0.8609E-01  0.8013E+01
   6.534  0.9047E-01  0.8014E+01
   6.544  0.9500E-01  0.8015E+01
   6.554  0.9968E-01  0.8016E+01
   6.564  0.1045E+00  0.8017E+01
   6.574  0.1095E+00  0.8018E+01
   6.584  0.1146E+00  0.8019E+01
   6.594  0.1198E+00  0.8021E+01
   6.604  0.1252E+00  0.8022E+01
   6.614  0.1307E+00  0.8023E+01
   6.624  0.1363E+00  0.8024E+01
   6.634  0.1420E+00  0.8026E+01
   6.644  0.1479E+00  0.8027E+01
   6.654  0.1539E+00  0.8029E+01
   6.664  0.1599E+00  0.8030E+01
   6.674  0.1661E+00  0.8032E+01
   6.684  0.1724E+00  0.8034E+01
   6.694  0.1787E+00  0.8036E+01
   6.704  0.1852E+00  0.8037E+01
   6.714  0.1917E+00  0.8039E+01
   6.724  0.1982E+00  0.8041E+01
   6.734  0.2049E+00  0.8043E+01
   6.744  0.2116E+00  0.8046E+01
   6.754  0.2184E+00  0.8048E+01
   6.764  0.2252E+00  0.8050E+01
   6.774  0.2320E+00  0.8052E+01
   6.784  0.2389E+00  0.8055E+01
   6.794  0.2458E+00  0.8057E+01
   6.804  0.2527E+00  0.8060E+01
   6.814  0.2597E+00  0.8062E+01
   6.824  0.2667E+00  0.8065E+01
   6.834  0.2736E+00  0.8068E+01
   6.844  0.2806E+00  0.8070E+01
   6.854  0.2876E+00  0.8073E+01
   6.864  0.2945E+00  0.8076E+01
   6.874  0.3015E+00  0.8079E+01
   6.884  0.3084E+00  0.8082E+01
   6.894  0.3154E+00  0.8086E+01
   6.904  0.3222E+00  0.8089E+01
   6.914  0.3291E+00  0.8092E+01
   6.924  0.3360E+00  0.8095E+01
   6.934  0.3428E+00  0.8099E+01
   6.944  0.3496E+00  0.8102E+01
   6.954  0.3563E+00  0.8106E+01
   6.964  0.3631E+00  0.8110E+01
   6.974  0.3698E+00  0.8113E+01
   6.984  0.3764E+00  0.8117E+01
   6.994  0.3831E+00  0.8121E+01
   7.004  0.3897E+00  0.8125E+01
   7.014  0.3963E+00  0.8129E+01
   7.024  0.4029E+00  0.8133E+01
   7.034  0.4094E+00  0.8137E+01
   7.044  0.4159E+00  0.8141E+01
   7.054  0.4225E+00  0.8145E+01
   7.064  0.4290E+00  0.8149E+01
   7.074  0.4355E+00  0.8154E+01
   7.084  0.4420E+00  0.8158E+01
   7.094  0.4485E+00  0.8163E+01
   7.104  0.4550E+00  0.8167E+01
   7.114  0.4615E+00  0.8172E+01
   7.124  0.4681E+00  0.8177E+01
   7.134  0.4747E+00  0.8181E+01
   7.144  0.4813E+00  0.8186E+01
   7.154  0.4880E+00  0.8191E+01
   7.164  0.4947E+00  0.8196E+01
   7.174  0.5014E+00  0.8201E+01
   7.184  0.5082E+00  0.8206E+01
   7.194  0.5151E+00  0.8211E+01
   7.204  0.5220E+00  0.8216E+01
   7.214  0.5290E+00  0.8222E+01
   7.224  0.5361E+00  0.8227E+01
   7.234  0.5433E+00  0.8233E+01
   7.244  0.5506E+00  0.8238E+01
   7.254  0.5579E+00  0.8244E+01
   7.264  0.5654E+00  0.8249E+01
   7.274  0.5729E+00  0.8255E+01
   7.284  0.5805E+00  0.8261E+01
   7.294  0.5883E+00  0.8267E+01
   7.304  0.5961E+00  0.8273E+01
   7.314  0.6041E+00  0.8279E+01
   7.324  0.6121E+00  0.8285E+01
   7.334  0.6203E+00  0.8291E+01
   7.344  0.6286E+00  0.8297E+01
   7.354  0.6369E+00  0.8304E+01
   7.364  0.6454E+00  0.8310E+01
   7.374  0.6540E+00  0.8317E+01
   7.384  0.6626E+00  0.8323E+01
   7.394  0.6714E+00  0.8330E+01
   7.404  0.6802E+00  0.8337E+01
   7.414  0.6892E+00  0.8344E+01
   7.424  0.6982E+00  0.8351E+01
   7.434  0.7073E+00  0.8358E+01
   7.444  0.7165E+00  0.8365E+01
   7.454  0.7258E+00  0.8372E+01
   7.464  0.7351E+00  0.8380E+01
   7.474  0.7445E+00  0.8387E+01
   7.484  0.7540E+00  0.8395E+01
   7.494  0.7635E+00  0.8402E+01
   7.504  0.7731E+00  0.8410E+01
   7.514  0.7827E+00  0.8418E+01
   7.524  0.7924E+00  0.8426E+01
   7.534  0.8021E+00  0.8434E+01
   7.544  0.8119E+00  0.8442E+01
   7.554  0.8216E+00  0.8450E+01
   7.564  0.8315E+00  0.8458E+01
   7.574  0.8413E+00  0.8467E+01
   7.584  0.8512E+00  0.8475E+01
   7.594  0.8611E+00  0.8484E+01
   7.604  0.8710E+00  0.8493E+01
   7.614  0.8810E+00  0.8501E+01
   7.624  0.8910E+00  0.8510E+01
   7.634  0.9010E+00  0.8519E+01
   7.644  0.9110E+00  0.8528E+01
   7.654  0.9211E+00  0.8538E+01
   7.664  0.9312E+00  0.8547E+01
   7.674  0.9413E+00  0.8556E+01
   7.684  0.9515E+00  0.8566E+01
   7.694  0.9617E+00  0.8575E+01
   7.704  0.9719E+00  0.8585E+01
   7.714  0.9822E+00  0.8595E+01
   7.724  0.9924E+00  0.8605E+01
   7.734  0.1003E+01  0.8615E+01
   7.744  0.1013E+01  0.8625E+01
   7.754  0.1024E+01  0.8635E+01
   7.764  0.1034E+01  0.8646E+01
   7.774  0.1045E+01  0.8656E+01
   7.784  0.1055E+01  0.8667E+01
   7.794  0.1066E+01  0.8677E+01
   7.804  0.1076E+01  0.8688E+01
   7.814  0.1087E+01  0.8699E+01
   7.824  0.1098E+01  0.8710E+01
   7.834  0.1109E+01  0.8721E+01
   7.844  0.1119E+01  0.8732E+01
   7.854  0.1130E+01  0.8744E+01
   7.864  0.1141E+01  0.8755E+01
   7.874  0.1152E+01  0.8766E+01
   7.884  0.1163E+01  0.8778E+01
   7.894  0.1174E+01  0.8790E+01
   7.904  0.1185E+01  0.8802E+01
   7.914  0.1195E+01  0.8814E+01
   7.924  0.1206E+01  0.8826E+01
   7.934  0.1217E+01  0.8838E+01
   7.944  0.1228E+01  0.8850E+01
   7.954  0.1239E+01  0.8863E+01
   7.964  0.1249E+01  0.8875E+01
   7.974  0.1260E+01  0.8888E+01
   7.984  0.1270E+01  0.8900E+01
   7.994  0.1281E+01  0.8913E+01
   8.004  0.1291E+01  0.8926E+01
   8.014  0.1301E+01  0.8939E+01
   8.024  0.1311E+01  0.8952E+01
   8.034  0.1321E+01  0.8965E+01
   8.044  0.1330E+01  0.8979E+01
   8.054  0.1340E+01  0.8992E+01
   8.064  0.1349E+01  0.9006E+01
   8.074  0.1358E+01  0.9019E+01
   8.084  0.1366E+01  0.9033E+01
   8.094  0.1375E+01  0.9047E+01
   8.104  0.1383E+01  0.9060E+01
   8.114  0.1390E+01  0.9074E+01
   8.124  0.1398E+01  0.9088E+01
   8.134  0.1405E+01  0.9102E+01
   8.144  0.1412E+01  0.9116E+01
   8.154  0.1418E+01  0.9131E+01
   8.164  0.1424E+01  0.9145E+01
   8.174  0.1429E+01  0.9159E+01
   8.184  0.1435E+01  0.9173E+01
   8.194  0.1439E+01  0.9188E+01
   8.204  0.1444E+01  0.9202E+01
   8.214  0.1448E+01  0.9217E+01
   8.224  0.1451E+01  0.9231E+01
   8.234  0.1454E+01  0.9246E+01
   8.244  0.1457E+01  0.9260E+01
   8.254  0.1459E+01  0.9275E+01
   8.264  0.1461E+01  0.9290E+01
   8.274  0.1462E+01  0.9304E+01
   8.284  0.1463E+01  0.9319E+01
   8.294  0.1464E+01  0.9333E+01
   8.304  0.1464E+01  0.9348E+01
   8.314  0.1463E+01  0.9363E+01
   8.324  0.1462E+01  0.9377E+01
   8.334  0.1461E+01  0.9392E+01
   8.344  0.1459E+01  0.9407E+01
   8.354  0.1457E+01  0.9421E+01
   8.364  0.1455E+01  0.9436E+01
   8.374  0.1452E+01  0.9450E+01
   8.384  0.1449E+01  0.9465E+01
   8.394  0.1445E+01  0.9479E+01
   8.404  0.1441E+01  0.9494E+01
   8.414  0.1437E+01  0.9508E+01
   8.424  0.1432E+01  0.9522E+01
   8.434  0.1427E+01  0.9537E+01
   8.444  0.1422E+01  0.9551E+01
   8.454  0.1416E+01  0.9565E+01
   8.464  0.1410E+01  0.9579E+01
   8.474  0.1404E+01  0.9593E+01
   8.484  0.1398E+01  0.9607E+01
   8.494  0.1392E+01  0.9621E+01
   8.504  0.1385E+01  0.9635E+01
   8.514  0.1378E+01  0.9649E+01
   8.524  0.1371E+01  0.9662E+01
   8.534  0.1364E+01  0.9676E+01
   8.544  0.1357E+01  0.9690E+01
   8.554  0.1350E+01  0.9703E+01
   8.564  0.1343E+01  0.9716E+01
   8.574  0.1336E+01  0.9730E+01
   8.584  0.1329E+01  0.9743E+01
   8.594  0.1322E+01  0.9756E+01
   8.604  0.1315E+01  0.9769E+01
   8.614  0.1308E+01  0.9783E+01
   8.624  0.1301E+01  0.9796E+01
   8.634  0.1294E+01  0.9809E+01
   8.644  0.1288E+01  0.9821E+01
   8.654  0.1282E+01  0.9834E+01
   8.664  0.1276E+01  0.9847E+01
   8.674  0.1270E+01  0.9860E+01
   8.684  0.1265E+01  0.9872E+01
   8.694  0.1260E+01  0.9885E+01
   8.704  0.1255E+01  0.9897E+01
   8.714  0.1251E+01  0.9910E+01
   8.724  0.1247E+01  0.9922E+01
   8.734  0.1244E+01  0.9935E+01
   8.744  0.1241E+01  0.9947E+01
   8.754  0.1239E+01  0.9960E+01
   8.764  0.1237E+01  0.9972E+01
   8.774  0.1236E+01  0.9984E+01
   8.784  0.1235E+01  0.9997E+01
   8.794  0.1235E+01  0.1001E+02
   8.804  0.1236E+01  0.1002E+02
   8.814  0.1237E+01  0.1003E+02
   8.824  0.1239E+01  0.1005E+02
   8.834  0.1242E+01  0.1006E+02
   8.844  0.1245E+01  0.1007E+02
   8.854  0.1249E+01  0.1008E+02
   8.864  0.1254E+01  0.1010E+02
   8.874  0.1259E+01  0.1011E+02
   8.884  0.1265E+01  0.1012E+02
   8.894  0.1272E+01  0.1013E+02
   8.904  0.1280E+01  0.1015E+02
   8.914  0.1288E+01  0.1016E+02
   8.924  0.1297E+01  0.1017E+02
   8.934  0.1307E+01  0.1019E+02
   8.944  0.1317E+01  0.1020E+02
   8.954  0.1328E+01  0.1021E+02
   8.964  0.1339E+01  0.1023E+02
   8.974  0.1352E+01  0.1024E+02
   8.984  0.1364E+01  0.1025E+02
   8.994  0.1377E+01  0.1027E+02
   9.004  0.1391E+01  0.1028E+02
   9.014  0.1405E+01  0.1029E+02
   9.024  0.1419E+01  0.1031E+02
   9.034  0.1434E+01  0.1032E+02
   9.044  0.1449E+01  0.1034E+02
   9.054  0.1465E+01  0.1035E+02
   9.064  0.1480E+01  0.1037E+02
   9.074  0.1496E+01  0.1038E+02
   9.084  0.1511E+01  0.1040E+02
   9.094  0.1527E+01  0.1041E+02
   9.104  0.1543E+01  0.1043E+02
   9.114  0.1559E+01  0.1044E+02
   9.124  0.1574E+01  0.1046E+02
   9.134  0.1590E+01  0.1047E+02
   9.144  0.1605E+01  0.1049E+02
   9.154  0.1620E+01  0.1051E+02
   9.164  0.1635E+01  0.1052E+02
   9.174  0.1649E+01  0.1054E+02
   9.184  0.1663E+01  0.1056E+02
   9.194  0.1676E+01  0.1057E+02
   9.204  0.1689E+01  0.1059E+02
   9.214  0.1701E+01  0.1061E+02
   9.224  0.1713E+01  0.1062E+02
   9.234  0.1724E+01  0.1064E+02
   9.244  0.1735E+01  0.1066E+02
   9.254  0.1745E+01  0.1068E+02
   9.264  0.1754E+01  0.1069E+02
   9.274  0.1762E+01  0.1071E+02
   9.284  0.1770E+01  0.1073E+02
   9.294  0.1777E+01  0.1075E+02
   9.304  0.1783E+01  0.1076E+02
   9.314  0.1789E+01  0.1078E+02
   9.324  0.1793E+01  0.1080E+02
   9.334  0.1797E+01  0.1082E+02
   9.344  0.1801E+01  0.1084E+02
   9.354  0.1803E+01  0.1085E+02
   9.364  0.1805E+01  0.1087E+02
   9.374  0.1806E+01  0.1089E+02
   9.384  0.1806E+01  0.1091E+02
   9.394  0.1806E+01  0.1093E+02
   9.404  0.1805E+01  0.1095E+02
   9.414  0.1803E+01  0.1096E+02
   9.424  0.1800E+01  0.1098E+02
   9.434  0.1797E+01  0.1100E+02
   9.444  0.1794E+01  0.1102E+02
   9.454  0.1790E+01  0.1103E+02
   9.464  0.1785E+01  0.1105E+02
   9.474  0.1780E+01  0.1107E+02
   9.484  0.1774E+01  0.1109E+02
   9.494  0.1768E+01  0.1111E+02
   9.504  0.1761E+01  0.1112E+02
   9.514  0.1754E+01  0.1114E+02
   9.524  0.1747E+01  0.1116E+02
   9.534  0.1739E+01  0.1118E+02
   9.544  0.1731E+01  0.1119E+02
   9.554  0.1723E+01  0.1121E+02
   9.564  0.1714E+01  0.1123E+02
   9.574  0.1705E+01  0.1124E+02
   9.584  0.1696E+01  0.1126E+02
   9.594  0.1687E+01  0.1128E+02
   9.604  0.1678E+01  0.1130E+02
   9.614  0.1668E+01  0.1131E+02
   9.624  0.1659E+01  0.1133E+02
   9.634  0.1649E+01  0.1135E+02
   9.644  0.1639E+01  0.1136E+02
   9.654  0.1629E+01  0.1138E+02
   9.664  0.1619E+01  0.1139E+02
   9.674  0.1609E+01  0.1141E+02
   9.684  0.1600E+01  0.1143E+02
   9.694  0.1590E+01  0.1144E+02
   9.704  0.1580E+01  0.1146E+02
   9.714  0.1570E+01  0.1147E+02
   9.724  0.1560E+01  0.1149E+02
   9.734  0.1551E+01  0.1150E+02
   9.744  0.1541E+01  0.1152E+02
   9.754  0.1532E+01  0.1154E+02
   9.764  0.1523E+01  0.1155E+02
   9.774  0.1514E+01  0.1157E+02
   9.784  0.1505E+01  0.1158E+02
   9.794  0.1496E+01  0.1160E+02
   9.804  0.1487E+01  0.1161E+02
   9.814  0.1479E+01  0.1163E+02
   9.824  0.1471E+01  0.1164E+02
   9.834  0.1463E+01  0.1165E+02
   9.844  0.1455E+01  0.1167E+02
   9.854  0.1448E+01  0.1168E+02
   9.864  0.1440E+01  0.1170E+02
   9.874  0.1433E+01  0.1171E+02
   9.884  0.1427E+01  0.1173E+02
   9.894  0.1420E+01  0.1174E+02
   9.904  0.1414E+01  0.1176E+02
   9.914  0.1408E+01  0.1177E+02
   9.924  0.1402E+01  0.1178E+02
   9.934  0.1397E+01  0.1180E+02
   9.944  0.1392E+01  0.1181E+02
   9.954  0.1387E+01  0.1182E+02
   9.964  0.1382E+01  0.1184E+02
   9.974  0.1378E+01  0.1185E+02
   9.984  0.1374E+01  0.1187E+02
   9.994  0.1370E+01  0.1188E+02
  10.004  0.1366E+01  0.1189E+02
  10.014  0.1362E+01  0.1191E+02
  10.024  0.1359E+01  0.1192E+02
  10.034  0.1356E+01  0.1193E+02
  10.044  0.1353E+01  0.1195E+02
  10.054  0.1351E+01  0.1196E+02
  10.064  0.1348E+01  0.1197E+02
  10.074  0.1346E+01  0.1199E+02
  10.084  0.1343E+01  0.1200E+02
  10.094  0.1341E+01  0.1202E+02
  10.104  0.1340E+01  0.1203E+02
  10.114  0.1338E+01  0.1204E+02
  10.124  0.1336E+01  0.1206E+02
  10.134  0.1334E+01  0.1207E+02
  10.144  0.1333E+01  0.1208E+02
  10.154  0.1331E+01  0.1210E+02
  10.164  0.1330E+01  0.1211E+02
  10.174  0.1329E+01  0.1212E+02
  10.184  0.1327E+01  0.1214E+02
  10.194  0.1326E+01  0.1215E+02
  10.204  0.1325E+01  0.1216E+02
  10.214  0.1324E+01  0.1217E+02
  10.224  0.1322E+01  0.1219E+02
  10.234  0.1321E+01  0.1220E+02
  10.244  0.1320E+01  0.1221E+02
  10.254  0.1319E+01  0.1223E+02
  10.264  0.1317E+01  0.1224E+02
  10.274  0.1316E+01  0.1225E+02
  10.284  0.1315E+01  0.1227E+02
  10.294  0.1314E+01  0.1228E+02
  10.304  0.1312E+01  0.1229E+02
  10.314  0.1311E+01  0.1231E+02
  10.324  0.1310E+01  0.1232E+02
  10.334  0.1309E+01  0.1233E+02
  10.344  0.1307E+01  0.1235E+02
  10.354  0.1306E+01  0.1236E+02
  10.364  0.1305E+01  0.1237E+02
  10.374  0.1303E+01  0.1238E+02
  10.384  0.1302E+01  0.1240E+02
  10.394  0.1301E+01  0.1241E+02
  10.404  0.1299E+01  0.1242E+02
  10.414  0.1298E+01  0.1244E+02
  10.424  0.1297E+01  0.1245E+02
  10.434  0.1295E+01  0.1246E+02
  10.444  0.1294E+01  0.1248E+02
  10.454  0.1293E+01  0.1249E+02
  10.464  0.1292E+01  0.1250E+02
  10.474  0.1291E+01  0.1251E+02
  10.484  0.1289E+01  0.1253E+02
  10.494  0.1288E+01  0.1254E+02
  10.504  0.1287E+01  0.1255E+02
  10.514  0.1286E+01  0.1257E+02
  10.524  0.1285E+01  0.1258E+02
  10.534  0.1285E+01  0.1259E+02
  10.544  0.1284E+01  0.1260E+02
  10.554  0.1283E+01  0.1262E+02
  10.564  0.1282E+01  0.1263E+02
  10.574  0.1282E+01  0.1264E+02
  10.584  0.1281E+01  0.1266E+02
  10.594  0.1281E+01  0.1267E+02
  10.604  0.1280E+01  0.1268E+02
  10.614  0.1280E+01  0.1269E+02
  10.624  0.1279E+01  0.1271E+02
  10.634  0.1279E+01  0.1272E+02
  10.644  0.1279E+01  0.1273E+02
  10.654  0.1279E+01  0.1275E+02
  10.664  0.1278E+01  0.1276E+02
  10.674  0.1278E+01  0.1277E+02
  10.684  0.1278E+01  0.1278E+02
  10.694  0.1278E+01  0.1280E+02
  10.704  0.1278E+01  0.1281E+02
  10.714  0.1278E+01  0.1282E+02
  10.724  0.1278E+01  0.1283E+02
  10.734  0.1278E+01  0.1285E+02
  10.744  0.1278E+01  0.1286E+02
  10.754  0.1278E+01  0.1287E+02
  10.764  0.1278E+01  0.1289E+02
  10.774  0.1278E+01  0.1290E+02
  10.784  0.1277E+01  0.1291E+02
  10.794  0.1277E+01  0.1292E+02
  10.804  0.1277E+01  0.1294E+02
  10.814  0.1276E+01  0.1295E+02
  10.824  0.1276E+01  0.1296E+02
  10.834  0.1275E+01  0.1298E+02
  10.844  0.1275E+01  0.1299E+02
  10.854  0.1274E+01  0.1300E+02
  10.864  0.1273E+01  0.1301E+02
  10.874  0.1272E+01  0.1303E+02
  10.884  0.1271E+01  0.1304E+02
  10.894  0.1270E+01  0.1305E+02
  10.904  0.1269E+01  0.1306E+02
  10.914  0.1267E+01  0.1308E+02
  10.924  0.1265E+01  0.1309E+02
  10.934  0.1264E+01  0.1310E+02
  10.944  0.1262E+01  0.1312E+02
  10.954  0.1260E+01  0.1313E+02
  10.964  0.1257E+01  0.1314E+02
  10.974  0.1255E+01  0.1315E+02
  10.984  0.1252E+01  0.1317E+02
  10.994  0.1250E+01  0.1318E+02
  11.004  0.1247E+01  0.1319E+02
  11.014  0.1244E+01  0.1320E+02
  11.024  0.1241E+01  0.1322E+02
  11.034  0.1237E+01  0.1323E+02
  11.044  0.1234E+01  0.1324E+02
  11.054  0.1231E+01  0.1325E+02
  11.064  0.1227E+01  0.1326E+02
  11.074  0.1223E+01  0.1328E+02
  11.084  0.1220E+01  0.1329E+02
  11.094  0.1216E+01  0.1330E+02
  11.104  0.1212E+01  0.1331E+02
  11.114  0.1208E+01  0.1333E+02
  11.124  0.1204E+01  0.1334E+02
  11.134  0.1200E+01  0.1335E+02
  11.144  0.1196E+01  0.1336E+02
  11.154  0.1192E+01  0.1337E+02
  11.164  0.1188E+01  0.1338E+02
  11.174  0.1185E+01  0.1340E+02
  11.184  0.1181E+01  0.1341E+02
  11.194  0.1177E+01  0.1342E+02
  11.204  0.1173E+01  0.1343E+02
  11.214  0.1170E+01  0.1344E+02
  11.224  0.1167E+01  0.1346E+02
  11.234  0.1163E+01  0.1347E+02
  11.244  0.1160E+01  0.1348E+02
  11.254  0.1157E+01  0.1349E+02
  11.264  0.1155E+01  0.1350E+02
  11.274  0.1152E+01  0.1351E+02
  11.284  0.1150E+01  0.1352E+02
  11.294  0.1148E+01  0.1354E+02
  11.304  0.1146E+01  0.1355E+02
  11.314  0.1144E+01  0.1356E+02
  11.324  0.1142E+01  0.1357E+02
  11.334  0.1141E+01  0.1358E+02
  11.344  0.1140E+01  0.1359E+02
  11.354  0.1139E+01  0.1360E+02
  11.364  0.1138E+01  0.1362E+02
  11.374  0.1137E+01  0.1363E+02
  11.384  0.1137E+01  0.1364E+02
  11.394  0.1137E+01  0.1365E+02
  11.404  0.1137E+01  0.1366E+02
  11.414  0.1137E+01  0.1367E+02
  11.424  0.1138E+01  0.1368E+02
  11.434  0.1138E+01  0.1370E+02
  11.444  0.1139E+01  0.1371E+02
  11.454  0.1140E+01  0.1372E+02
  11.464  0.1141E+01  0.1373E+02
  11.474  0.1142E+01  0.1374E+02
  11.484  0.1143E+01  0.1375E+02
  11.494  0.1144E+01  0.1376E+02
  11.504  0.1146E+01  0.1378E+02
  11.514  0.1147E+01  0.1379E+02
  11.524  0.1148E+01  0.1380E+02
  11.534  0.1150E+01  0.1381E+02
  11.544  0.1151E+01  0.1382E+02
  11.554  0.1152E+01  0.1383E+02
  11.564  0.1153E+01  0.1384E+02
  11.574  0.1155E+01  0.1386E+02
  11.584  0.1156E+01  0.1387E+02
  11.594  0.1157E+01  0.1388E+02
  11.604  0.1157E+01  0.1389E+02
  11.614  0.1158E+01  0.1390E+02
  11.624  0.1158E+01  0.1391E+02
  11.634  0.1159E+01  0.1393E+02
  11.644  0.1159E+01  0.1394E+02
  11.654  0.1159E+01  0.1395E+02
  11.664  0.1158E+01  0.1396E+02
  11.674  0.1158E+01  0.1397E+02
  11.684  0.1157E+01  0.1398E+02
  11.694  0.1156E+01  0.1400E+02
  11.704  0.1154E+01  0.1401E+02
  11.714  0.1153E+01  0.1402E+02
  11.724  0.1151E+01  0.1403E+02
  11.734  0.1149E+01  0.1404E+02
  11.744  0.1146E+01  0.1405E+02
  11.754  0.1143E+01  0.1406E+02
  11.764  0.1140E+01  0.1408E+02
  11.774  0.1137E+01  0.1409E+02
  11.784  0.1133E+01  0.1410E+02
  11.794  0.1130E+01  0.1411E+02
  11.804  0.1126E+01  0.1412E+02
  11.814  0.1121E+01  0.1413E+02
  11.824  0.1117E+01  0.1414E+02
  11.834  0.1112E+01  0.1415E+02
  11.844  0.1107E+01  0.1417E+02
  11.854  0.1102E+01  0.1418E+02
  11.864  0.1097E+01  0.1419E+02
  11.874  0.1092E+01  0.1420E+02
  11.884  0.1086E+01  0.1421E+02
  11.894  0.1081E+01  0.1422E+02
  11.904  0.1075E+01  0.1423E+02
  11.914  0.1070E+01  0.1424E+02
  11.924  0.1064E+01  0.1425E+02
  11.934  0.1058E+01  0.1426E+02
  11.944  0.1053E+01  0.1427E+02
  11.954  0.1048E+01  0.1428E+02
  11.964  0.1042E+01  0.1429E+02
  11.974  0.1037E+01  0.1430E+02
  11.984  0.1032E+01  0.1431E+02
  11.994  0.1027E+01  0.1433E+02
  12.004  0.1023E+01  0.1434E+02
  12.014  0.1019E+01  0.1435E+02
  12.024  0.1015E+01  0.1436E+02
  12.034  0.1011E+01  0.1437E+02
  12.044  0.1008E+01  0.1438E+02
  12.054  0.1005E+01  0.1439E+02
  12.064  0.1002E+01  0.1440E+02
  12.074  0.9999E+00  0.1441E+02
  12.084  0.9982E+00  0.1442E+02
  12.094  0.9969E+00  0.1443E+02
  12.104  0.9961E+00  0.1444E+02
  12.114  0.9957E+00  0.1445E+02
  12.124  0.9959E+00  0.1446E+02
  12.134  0.9965E+00  0.1447E+02
  12.144  0.9977E+00  0.1448E+02
  12.154  0.9993E+00  0.1449E+02
  12.164  0.1001E+01  0.1450E+02
  12.174  0.1004E+01  0.1451E+02
  12.184  0.1007E+01  0.1452E+02
  12.194  0.1011E+01  0.1453E+02
  12.204  0.1015E+01  0.1454E+02
  12.214  0.1020E+01  0.1455E+02
  12.224  0.1025E+01  0.1456E+02
  12.234  0.1031E+01  0.1457E+02
  12.244  0.1037E+01  0.1458E+02
  12.254  0.1044E+01  0.1459E+02
  12.264  0.1051E+01  0.1460E+02
  12.274  0.1058E+01  0.1461E+02
  12.284  0.1066E+01  0.1462E+02
  12.294  0.1074E+01  0.1463E+02
  12.304  0.1083E+01  0.1464E+02
  12.314  0.1092E+01  0.1465E+02
  12.324  0.1101E+01  0.1466E+02
  12.334  0.1110E+01  0.1467E+02
  12.344  0.1119E+01  0.1469E+02
  12.354  0.1129E+01  0.1470E+02
  12.364  0.1139E+01  0.1471E+02
  12.374  0.1149E+01  0.1472E+02
  12.384  0.1159E+01  0.1473E+02
  12.394  0.1169E+01  0.1474E+02
  12.404  0.1179E+01  0.1475E+02
  12.414  0.1188E+01  0.1477E+02
  12.424  0.1198E+01  0.1478E+02
  12.434  0.1208E+01  0.1479E+02
  12.444  0.1217E+01  0.1480E+02
  12.454  0.1227E+01  0.1481E+02
  12.464  0.1236E+01  0.1483E+02
  12.474  0.1245E+01  0.1484E+02
  12.484  0.1253E+01  0.1485E+02
  12.494  0.1261E+01  0.1486E+02
  12.504  0.1269E+01  0.1488E+02
  12.514  0.1276E+01  0.1489E+02
  12.524  0.1283E+01  0.1490E+02
  12.534  0.1289E+01  0.1492E+02
  12.544  0.1295E+01  0.1493E+02
  12.554  0.1300E+01  0.1494E+02
  12.564  0.1305E+01  0.1495E+02
  12.574  0.1309E+01  0.1497E+02
  12.584  0.1313E+01  0.1498E+02
  12.594  0.1316E+01  0.1499E+02
  12.604  0.1318E+01  0.1501E+02
  12.614  0.1320E+01  0.1502E+02
  12.624  0.1321E+01  0.1503E+02
  12.634  0.1321E+01  0.1505E+02
  12.644  0.1321E+01  0.1506E+02
  12.654  0.1320E+01  0.1507E+02
  12.664  0.1318E+01  0.1509E+02
  12.674  0.1316E+01  0.1510E+02
  12.684  0.1313E+01  0.1511E+02
  12.694  0.1310E+01  0.1513E+02
  12.704  0.1306E+01  0.1514E+02
  12.714  0.1301E+01  0.1515E+02
  12.724  0.1296E+01  0.1517E+02
  12.734  0.1290E+01  0.1518E+02
  12.744  0.1284E+01  0.1519E+02
  12.754  0.1277E+01  0.1520E+02
  12.764  0.1270E+01  0.1522E+02
  12.774  0.1263E+01  0.1523E+02
  12.784  0.1254E+01  0.1524E+02
  12.794  0.1246E+01  0.1525E+02
  12.804  0.1237E+01  0.1527E+02
  12.814  0.1228E+01  0.1528E+02
  12.824  0.1219E+01  0.1529E+02
  12.834  0.1210E+01  0.1530E+02
  12.844  0.1200E+01  0.1531E+02
  12.854  0.1191E+01  0.1533E+02
  12.864  0.1181E+01  0.1534E+02
  12.874  0.1171E+01  0.1535E+02
  12.884  0.1162E+01  0.1536E+02
  12.894  0.1152E+01  0.1537E+02
  12.904  0.1142E+01  0.1538E+02
  12.914  0.1133E+01  0.1540E+02
  12.924  0.1124E+01  0.1541E+02
  12.934  0.1115E+01  0.1542E+02
  12.944  0.1106E+01  0.1543E+02
  12.954  0.1098E+01  0.1544E+02
  12.964  0.1090E+01  0.1545E+02
  12.974  0.1083E+01  0.1546E+02
  12.984  0.1075E+01  0.1547E+02
  12.994  0.1069E+01  0.1548E+02
  13.004  0.1063E+01  0.1549E+02
  13.014  0.1057E+01  0.1551E+02
  13.024  0.1052E+01  0.1552E+02
  13.034  0.1047E+01  0.1553E+02
  13.044  0.1044E+01  0.1554E+02
  13.054  0.1040E+01  0.1555E+02
  13.064  0.1038E+01  0.1556E+02
  13.074  0.1036E+01  0.1557E+02
  13.084  0.1034E+01  0.1558E+02
  13.094  0.1034E+01  0.1559E+02
  13.104  0.1034E+01  0.1560E+02
  13.114  0.1034E+01  0.1561E+02
  13.124  0.1036E+01  0.1562E+02
  13.134  0.1038E+01  0.1563E+02
  13.144  0.1040E+01  0.1564E+02
  13.154  0.1044E+01  0.1565E+02
  13.164  0.1048E+01  0.1566E+02
  13.174  0.1053E+01  0.1567E+02
  13.184  0.1058E+01  0.1568E+02
  13.194  0.1064E+01  0.1569E+02
  13.204  0.1071E+01  0.1570E+02
  13.214  0.1078E+01  0.1571E+02
  13.224  0.1085E+01  0.1573E+02
  13.234  0.1094E+01  0.1574E+02
  13.244  0.1102E+01  0.1575E+02
  13.254  0.1112E+01  0.1576E+02
  13.264  0.1121E+01  0.1577E+02
  13.274  0.1131E+01  0.1578E+02
  13.284  0.1142E+01  0.1579E+02
  13.294  0.1153E+01  0.1580E+02
  13.304  0.1164E+01  0.1582E+02
  13.314  0.1175E+01  0.1583E+02
  13.324  0.1187E+01  0.1584E+02
  13.334  0.1198E+01  0.1585E+02
  13.344  0.1210E+01  0.1586E+02
  13.354  0.1222E+01  0.1588E+02
  13.364  0.1234E+01  0.1589E+02
  13.374  0.1246E+01  0.1590E+02
  13.384  0.1258E+01  0.1591E+02
  13.394  0.1270E+01  0.1593E+02
  13.404  0.1282E+01  0.1594E+02
  13.414  0.1294E+01  0.1595E+02
  13.424  0.1305E+01  0.1596E+02
  13.434  0.1316E+01  0.1598E+02
  13.444  0.1327E+01  0.1599E+02
  13.454  0.1337E+01  0.1600E+02
  13.464  0.1347E+01  0.1602E+02
  13.474  0.1357E+01  0.1603E+02
  13.484  0.1366E+01  0.1604E+02
  13.494  0.1374E+01  0.1606E+02
  13.504  0.1382E+01  0.1607E+02
  13.514  0.1390E+01  0.1609E+02
  13.524  0.1396E+01  0.1610E+02
  13.534  0.1402E+01  0.1611E+02
  13.544  0.1408E+01  0.1613E+02
  13.554  0.1413E+01  0.1614E+02
  13.564  0.1417E+01  0.1616E+02
  13.574  0.1420E+01  0.1617E+02
  13.584  0.1422E+01  0.1618E+02
  13.594  0.1424E+01  0.1620E+02
  13.604  0.1425E+01  0.1621E+02
  13.614  0.1425E+01  0.1623E+02
  13.624  0.1425E+01  0.1624E+02
  13.634  0.1423E+01  0.1626E+02
  13.644  0.1421E+01  0.1627E+02
  13.654  0.1418E+01  0.1628E+02
  13.664  0.1415E+01  0.1630E+02
  13.674  0.1410E+01  0.1631E+02
  13.684  0.1405E+01  0.1633E+02
  13.694  0.1400E+01  0.1634E+02
  13.704  0.1393E+01  0.1635E+02
  13.714  0.1386E+01  0.1637E+02
  13.724  0.1379E+01  0.1638E+02
  13.734  0.1370E+01  0.1640E+02
  13.744  0.1362E+01  0.1641E+02
  13.754  0.1352E+01  0.1642E+02
  13.764  0.1343E+01  0.1644E+02
  13.774  0.1332E+01  0.1645E+02
  13.784  0.1322E+01  0.1646E+02
  13.794  0.1311E+01  0.1648E+02
  13.804  0.1300E+01  0.1649E+02
  13.814  0.1289E+01  0.1650E+02
  13.824  0.1277E+01  0.1651E+02
  13.834  0.1265E+01  0.1653E+02
  13.844  0.1254E+01  0.1654E+02
  13.854  0.1242E+01  0.1655E+02
  13.864  0.1230E+01  0.1656E+02
  13.874  0.1218E+01  0.1658E+02
  13.884  0.1207E+01  0.1659E+02
  13.894  0.1195E+01  0.1660E+02
  13.904  0.1184E+01  0.1661E+02
  13.914  0.1173E+01  0.1662E+02
  13.924  0.1162E+01  0.1664E+02
  13.934  0.1152E+01  0.1665E+02
  13.944  0.1142E+01  0.1666E+02
  13.954  0.1132E+01  0.1667E+02
  13.964  0.1123E+01  0.1668E+02
  13.974  0.1115E+01  0.1669E+02
  13.984  0.1106E+01  0.1670E+02
  13.994  0.1099E+01  0.1671E+02
  14.004  0.1092E+01  0.1673E+02
  14.014  0.1085E+01  0.1674E+02
  14.024  0.1079E+01  0.1675E+02
  14.034  0.1074E+01  0.1676E+02
  14.044  0.1069E+01  0.1677E+02
  14.054  0.1065E+01  0.1678E+02
  14.064  0.1062E+01  0.1679E+02
  14.074  0.1059E+01  0.1680E+02
  14.084  0.1057E+01  0.1681E+02
  14.094  0.1055E+01  0.1682E+02
  14.104  0.1055E+01  0.1683E+02
  14.114  0.1055E+01  0.1684E+02
  14.124  0.1055E+01  0.1685E+02
  14.134  0.1056E+01  0.1686E+02
  14.144  0.1058E+01  0.1687E+02
  14.154  0.1061E+01  0.1689E+02
  14.164  0.1064E+01  0.1690E+02
  14.174  0.1068E+01  0.1691E+02
  14.184  0.1072E+01  0.1692E+02
  14.194  0.1077E+01  0.1693E+02
  14.204  0.1082E+01  0.1694E+02
  14.214  0.1088E+01  0.1695E+02
  14.224  0.1094E+01  0.1696E+02
  14.234  0.1101E+01  0.1697E+02
  14.244  0.1108E+01  0.1698E+02
  14.254  0.1115E+01  0.1699E+02
  14.264  0.1123E+01  0.1701E+02
  14.274  0.1131E+01  0.1702E+02
  14.284  0.1140E+01  0.1703E+02
  14.294  0.1148E+01  0.1704E+02
  14.304  0.1157E+01  0.1705E+02
  14.314  0.1166E+01  0.1706E+02
  14.324  0.1175E+01  0.1707E+02
  14.334  0.1184E+01  0.1709E+02
  14.344  0.1193E+01  0.1710E+02
  14.354  0.1202E+01  0.1711E+02
  14.364  0.1211E+01  0.1712E+02
  14.374  0.1220E+01  0.1713E+02
  14.384  0.1228E+01  0.1715E+02
  14.394  0.1237E+01  0.1716E+02
  14.404  0.1245E+01  0.1717E+02
  14.414  0.1253E+01  0.1718E+02
  14.424  0.1261E+01  0.1720E+02
  14.434  0.1268E+01  0.1721E+02
  14.444  0.1275E+01  0.1722E+02
  14.454  0.1281E+01  0.1723E+02
  14.464  0.1287E+01  0.1725E+02
  14.474  0.1293E+01  0.1726E+02
  14.484  0.1298E+01  0.1727E+02
  14.494  0.1302E+01  0.1729E+02
  14.504  0.1306E+01  0.1730E+02
  14.514  0.1309E+01  0.1731E+02
  14.524  0.1312E+01  0.1733E+02
  14.534  0.1314E+01  0.1734E+02
  14.544  0.1316E+01  0.1735E+02
  14.554  0.1316E+01  0.1737E+02
  14.564  0.1317E+01  0.1738E+02
  14.574  0.1316E+01  0.1739E+02
  14.584  0.1315E+01  0.1740E+02
  14.594  0.1314E+01  0.1742E+02
  14.604  0.1311E+01  0.1743E+02
  14.614  0.1308E+01  0.1744E+02
  14.624  0.1305E+01  0.1746E+02
  14.634  0.1301E+01  0.1747E+02
  14.644  0.1297E+01  0.1748E+02
  14.654  0.1292E+01  0.1750E+02
  14.664  0.1286E+01  0.1751E+02
  14.674  0.1280E+01  0.1752E+02
  14.684  0.1274E+01  0.1753E+02
  14.694  0.1267E+01  0.1755E+02
  14.704  0.1260E+01  0.1756E+02
  14.714  0.1253E+01  0.1757E+02
  14.724  0.1245E+01  0.1758E+02
  14.734  0.1237E+01  0.1760E+02
  14.744  0.1229E+01  0.1761E+02
  14.754  0.1221E+01  0.1762E+02
  14.764  0.1213E+01  0.1763E+02
  14.774  0.1204E+01  0.1765E+02
  14.784  0.1196E+01  0.1766E+02
  14.794  0.1188E+01  0.1767E+02
  14.804  0.1180E+01  0.1768E+02
  14.814  0.1172E+01  0.1769E+02
  14.824  0.1164E+01  0.1770E+02
  14.834  0.1156E+01  0.1772E+02
  14.844  0.1149E+01  0.1773E+02
  14.854  0.1142E+01  0.1774E+02
  14.864  0.1135E+01  0.1775E+02
  14.874  0.1128E+01  0.1776E+02
  14.884  0.1122E+01  0.1777E+02
  14.894  0.1117E+01  0.1778E+02
  14.904  0.1111E+01  0.1780E+02
  14.914  0.1106E+01  0.1781E+02
  14.924  0.1102E+01  0.1782E+02
  14.934  0.1098E+01  0.1783E+02
  14.944  0.1095E+01  0.1784E+02
  14.954  0.1092E+01  0.1785E+02
  14.964  0.1090E+01  0.1786E+02
  14.974  0.1088E+01  0.1787E+02
  14.984  0.1086E+01  0.1788E+02
  14.994  0.1086E+01  0.1789E+02
  15.004  0.1085E+01  0.1790E+02
  15.014  0.1086E+01  0.1792E+02
  15.024  0.1087E+01  0.1793E+02
  15.034  0.1088E+01  0.1794E+02
  15.044  0.1090E+01  0.1795E+02
  15.054  0.1092E+01  0.1796E+02
  15.064  0.1095E+01  0.1797E+02
  15.074  0.1098E+01  0.1798E+02
  15.084  0.1102E+01  0.1799E+02
  15.094  0.1106E+01  0.1800E+02
  15.104  0.1110E+01  0.1801E+02
  15.114  0.1115E+01  0.1803E+02
  15.124  0.1120E+01  0.1804E+02
  15.134  0.1125E+01  0.1805E+02
  15.144  0.1131E+01  0.1806E+02
  15.154  0.1137E+01  0.1807E+02
  15.164  0.1143E+01  0.1808E+02
  15.174  0.1149E+01  0.1809E+02
  15.184  0.1156E+01  0.1811E+02
  15.194  0.1162E+01  0.1812E+02
  15.204  0.1169E+01  0.1813E+02
  15.214  0.1175E+01  0.1814E+02
  15.224  0.1182E+01  0.1815E+02
  15.234  0.1189E+01  0.1816E+02
  15.244  0.1195E+01  0.1818E+02
  15.254  0.1201E+01  0.1819E+02
  15.264  0.1208E+01  0.1820E+02
  15.274  0.1214E+01  0.1821E+02
  15.284  0.1219E+01  0.1822E+02
  15.294  0.1225E+01  0.1824E+02
  15.304  0.1230E+01  0.1825E+02
  15.314  0.1235E+01  0.1826E+02
  15.324  0.1240E+01  0.1827E+02
  15.334  0.1244E+01  0.1829E+02
  15.344  0.1248E+01  0.1830E+02
  15.354  0.1251E+01  0.1831E+02
  15.364  0.1254E+01  0.1832E+02
  15.374  0.1257E+01  0.1834E+02
  15.384  0.1259E+01  0.1835E+02
  15.394  0.1261E+01  0.1836E+02
  15.404  0.1262E+01  0.1837E+02
  15.414  0.1262E+01  0.1839E+02
  15.424  0.1262E+01  0.1840E+02
  15.434  0.1262E+01  0.1841E+02
  15.444  0.1261E+01  0.1842E+02
  15.454  0.1260E+01  0.1844E+02
  15.464  0.1258E+01  0.1845E+02
  15.474  0.1255E+01  0.1846E+02
  15.484  0.1252E+01  0.1847E+02
  15.494  0.1249E+01  0.1849E+02
  15.504  0.1245E+01  0.1850E+02
  15.514  0.1241E+01  0.1851E+02
  15.524  0.1236E+01  0.1852E+02
  15.534  0.1231E+01  0.1854E+02
  15.544  0.1225E+01  0.1855E+02
  15.554  0.1219E+01  0.1856E+02
  15.564  0.1213E+01  0.1857E+02
  15.574  0.1206E+01  0.1859E+02
  15.584  0.1199E+01  0.1860E+02
  15.594  0.1192E+01  0.1861E+02
  15.604  0.1185E+01  0.1862E+02
  15.614  0.1177E+01  0.1863E+02
  15.624  0.1169E+01  0.1864E+02
  15.634  0.1161E+01  0.1866E+02
  15.644  0.1153E+01  0.1867E+02
  15.654  0.1144E+01  0.1868E+02
  15.664  0.1136E+01  0.1869E+02
  15.674  0.1128E+01  0.1870E+02
  15.684  0.1119E+01  0.1871E+02
  15.694  0.1111E+01  0.1872E+02
  15.704  0.1102E+01  0.1873E+02
  15.714  0.1094E+01  0.1875E+02
  15.724  0.1085E+01  0.1876E+02
  15.734  0.1077E+01  0.1877E+02
  15.744  0.1069E+01  0.1878E+02
  15.754  0.1061E+01  0.1879E+02
  15.764  0.1053E+01  0.1880E+02
  15.774  0.1045E+01  0.1881E+02
  15.784  0.1038E+01  0.1882E+02
  15.794  0.1031E+01  0.1883E+02
  15.804  0.1024E+01  0.1884E+02
  15.814  0.1017E+01  0.1885E+02
  15.824  0.1010E+01  0.1886E+02
  15.834  0.1004E+01  0.1887E+02
  15.844  0.9980E+00  0.1888E+02
  15.854  0.9922E+00  0.1889E+02
  15.864  0.9868E+00  0.1890E+02
  15.874  0.9817E+00  0.1891E+02
  15.884  0.9768E+00  0.1892E+02
  15.894  0.9723E+00  0.1893E+02
  15.904  0.9682E+00  0.1894E+02
  15.914  0.9643E+00  0.1895E+02
  15.924  0.9608E+00  0.1896E+02
  15.934  0.9576E+00  0.1897E+02
  15.944  0.9547E+00  0.1898E+02
  15.954  0.9522E+00  0.1899E+02
  15.964  0.9500E+00  0.1900E+02
  15.974  0.9481E+00  0.1901E+02
  15.984  0.9466E+00  0.1902E+02
  15.994  0.9453E+00  0.1903E+02
  16.004  0.9444E+00  0.1904E+02
  16.014  0.9438E+00  0.1904E+02
  16.024  0.9435E+00  0.1905E+02
  16.034  0.9435E+00  0.1906E+02
  16.044  0.9437E+00  0.1907E+02
  16.054  0.9442E+00  0.1908E+02
  16.064  0.9450E+00  0.1909E+02
  16.074  0.9460E+00  0.1910E+02
  16.084  0.9472E+00  0.1911E+02
  16.094  0.9486E+00  0.1912E+02
  16.104  0.9502E+00  0.1913E+02
  16.114  0.9520E+00  0.1914E+02
  16.124  0.9540E+00  0.1915E+02
  16.134  0.9561E+00  0.1916E+02
  16.144  0.9583E+00  0.1917E+02
  16.154  0.9606E+00  0.1918E+02
  16.164  0.9629E+00  0.1919E+02
  16.174  0.9653E+00  0.1920E+02
  16.184  0.9678E+00  0.1921E+02
  16.194  0.9702E+00  0.1922E+02
  16.204  0.9726E+00  0.1923E+02
  16.214  0.9750E+00  0.1924E+02
  16.224  0.9774E+00  0.1925E+02
  16.234  0.9796E+00  0.1926E+02
  16.244  0.9818E+00  0.1926E+02
  16.254  0.9838E+00  0.1927E+02
  16.264  0.9856E+00  0.1928E+02
  16.274  0.9873E+00  0.1929E+02
  16.284  0.9889E+00  0.1930E+02
  16.294  0.9902E+00  0.1931E+02
  16.304  0.9913E+00  0.1932E+02
  16.314  0.9921E+00  0.1933E+02
  16.324  0.9927E+00  0.1934E+02
  16.334  0.9930E+00  0.1935E+02
  16.344  0.9930E+00  0.1936E+02
  16.354  0.9928E+00  0.1937E+02
  16.364  0.9922E+00  0.1938E+02
  16.374  0.9913E+00  0.1939E+02
  16.384  0.9900E+00  0.1940E+02
  16.394  0.9885E+00  0.1941E+02
  16.404  0.9865E+00  0.1942E+02
  16.414  0.9843E+00  0.1943E+02
  16.424  0.9816E+00  0.1944E+02
  16.434  0.9787E+00  0.1945E+02
  16.444  0.9753E+00  0.1946E+02
  16.454  0.9716E+00  0.1947E+02
  16.464  0.9675E+00  0.1948E+02
  16.474  0.9631E+00  0.1949E+02
  16.484  0.9583E+00  0.1950E+02
  16.494  0.9531E+00  0.1951E+02
  16.504  0.9476E+00  0.1952E+02
  16.514  0.9418E+00  0.1953E+02
  16.524  0.9356E+00  0.1954E+02
  16.534  0.9291E+00  0.1955E+02
  16.544  0.9222E+00  0.1956E+02
  16.554  0.9151E+00  0.1957E+02
  16.564  0.9076E+00  0.1958E+02
  16.574  0.8998E+00  0.1958E+02
  16.584  0.8917E+00  0.1959E+02
  16.594  0.8834E+00  0.1960E+02
  16.604  0.8747E+00  0.1961E+02
  16.614  0.8658E+00  0.1962E+02
  16.624  0.8567E+00  0.1963E+02
  16.634  0.8473E+00  0.1964E+02
  16.644  0.8377E+00  0.1965E+02
  16.654  0.8278E+00  0.1965E+02
  16.664  0.8178E+00  0.1966E+02
  16.674  0.8076E+00  0.1967E+02
  16.684  0.7971E+00  0.1968E+02
  16.694  0.7865E+00  0.1969E+02
  16.704  0.7758E+00  0.1969E+02
  16.714  0.7649E+00  0.1970E+02
  16.724  0.7539E+00  0.1971E+02
  16.734  0.7427E+00  0.1972E+02
  16.744  0.7314E+00  0.1972E+02
  16.754  0.7201E+00  0.1973E+02
  16.764  0.7086E+00  0.1974E+02
  16.774  0.6971E+00  0.1974E+02
  16.784  0.6856E+00  0.1975E+02
  16.794  0.6740E+00  0.1976E+02
  16.804  0.6623E+00  0.1976E+02
  16.814  0.6506E+00  0.1977E+02
  16.824  0.6389E+00  0.1978E+02
  16.834  0.6272E+00  0.1978E+02
  16.844  0.6156E+00  0.1979E+02
  16.854  0.6039E+00  0.1980E+02
  16.864  0.5923E+00  0.1980E+02
  16.874  0.5807E+00  0.1981E+02
  16.884  0.5692E+00  0.1981E+02
  16.894  0.5577E+00  0.1982E+02
  16.904  0.5463E+00  0.1982E+02
  16.914  0.5350E+00  0.1983E+02
  16.924  0.5237E+00  0.1984E+02
  16.934  0.5126E+00  0.1984E+02
  16.944  0.5016E+00  0.1985E+02
  16.954  0.4906E+00  0.1985E+02
  16.964  0.4798E+00  0.1986E+02
  16.974  0.4691E+00  0.1986E+02
  16.984  0.4585E+00  0.1986E+02
  16.994  0.4480E+00  0.1987E+02
  17.004  0.4377E+00  0.1987E+02
  17.014  0.4275E+00  0.1988E+02
  17.024  0.4174E+00  0.1988E+02
  17.034  0.4074E+00  0.1989E+02
  17.044  0.3976E+00  0.1989E+02
  17.054  0.3880E+00  0.1989E+02
  17.064  0.3784E+00  0.1990E+02
  17.074  0.3690E+00  0.1990E+02
  17.084  0.3598E+00  0.1990E+02
  17.094  0.3507E+00  0.1991E+02
  17.104  0.3417E+00  0.1991E+02
  17.114  0.3328E+00  0.1991E+02
  17.124  0.3241E+00  0.1992E+02
  17.134  0.3155E+00  0.1992E+02
  17.144  0.3071E+00  0.1992E+02
  17.154  0.2988E+00  0.1993E+02
  17.164  0.2906E+00  0.1993E+02
  17.174  0.2825E+00  0.1993E+02
  17.184  0.2745E+00  0.1994E+02
  17.194  0.2667E+00  0.1994E+02
  17.204  0.2590E+00  0.1994E+02
  17.214  0.2514E+00  0.1994E+02
  17.224  0.2439E+00  0.1995E+02
  17.234  0.2365E+00  0.1995E+02
  17.244  0.2293E+00  0.1995E+02
  17.254  0.2221E+00  0.1995E+02
  17.264  0.2151E+00  0.1996E+02
  17.274  0.2081E+00  0.1996E+02
  17.284  0.2013E+00  0.1996E+02
  17.294  0.1946E+00  0.1996E+02
  17.304  0.1880E+00  0.1996E+02
  17.314  0.1815E+00  0.1996E+02
  17.324  0.1751E+00  0.1997E+02
  17.334  0.1689E+00  0.1997E+02
  17.344  0.1627E+00  0.1997E+02
  17.354  0.1566E+00  0.1997E+02
  17.364  0.1507E+00  0.1997E+02
  17.374  0.1449E+00  0.1997E+02
  17.384  0.1392E+00  0.1998E+02
  17.394  0.1336E+00  0.1998E+02
  17.404  0.1281E+00  0.1998E+02
  17.414  0.1227E+00  0.1998E+02
  17.424  0.1175E+00  0.1998E+02
  17.434  0.1124E+00  0.1998E+02
  17.444  0.1074E+00  0.1998E+02
  17.454  0.1025E+00  0.1998E+02
  17.464  0.9777E-01  0.1998E+02
  17.474  0.9316E-01  0.1999E+02
  17.484  0.8868E-01  0.1999E+02
  17.494  0.8433E-01  0.1999E+02
  17.504  0.8010E-01  0.1999E+02
  17.514  0.7601E-01  0.1999E+02
  17.524  0.7205E-01  0.1999E+02
  17.534  0.6823E-01  0.1999E+02
  17.544  0.6453E-01  0.1999E+02
  17.554  0.6097E-01  0.1999E+02
  17.564  0.5754E-01  0.1999E+02
  17.574  0.5424E-01  0.1999E+02
  17.584  0.5107E-01  0.1999E+02
  17.594  0.4802E-01  0.1999E+02
  17.604  0.4511E-01  0.1999E+02
  17.614  0.4232E-01  0.1999E+02
  17.624  0.3966E-01  0.2000E+02
  17.634  0.3711E-01  0.2000E+02
  17.644  0.3469E-01  0.2000E+02
  17.654  0.3239E-01  0.2000E+02
  17.664  0.3020E-01  0.2000E+02
  17.674  0.2812E-01  0.2000E+02
  17.684  0.2615E-01  0.2000E+02
  17.694  0.2429E-01  0.2000E+02
  17.704  0.2253E-01  0.2000E+02
  17.714  0.2087E-01  0.2000E+02
  17.724  0.1931E-01  0.2000E+02
  17.734  0.1784E-01  0.2000E+02
  17.744  0.1646E-01  0.2000E+02
  17.754  0.1516E-01  0.2000E+02
  17.764  0.1395E-01  0.2000E+02
  17.774  0.1282E-01  0.2000E+02
  17.784  0.1177E-01  0.2000E+02
  17.794  0.1078E-01  0.2000E+02
  17.804  0.9865E-02  0.2000E+02
  17.814  0.9015E-02  0.2000E+02
  17.824  0.8226E-02  0.2000E+02
  17.834  0.7496E-02  0.2000E+02
  17.844  0.6821E-02  0.2000E+02
  17.854  0.6198E-02  0.2000E+02
  17.864  0.5623E-02  0.2000E+02
  17.874  0.5095E-02  0.2000E+02
  17.884  0.4609E-02  0.2000E+02
  17.894  0.4164E-02  0.2000E+02
  17.904  0.3756E-02  0.2000E+02
  17.914  0.3384E-02  0.2000E+02
  17.924  0.3043E-02  0.2000E+02
  17.934  0.2733E-02  0.2000E+02
  17.944  0.2451E-02  0.2000E+02
  17.954  0.2195E-02  0.2000E+02
  17.964  0.1963E-02  0.2000E+02
  17.974  0.1752E-02  0.2000E+02
  17.984  0.1562E-02  0.2000E+02
  17.994  0.1390E-02  0.2000E+02
  18.004  0.1236E-02  0.2000E+02
  18.014  0.1097E-02  0.2000E+02
  18.024  0.9718E-03  0.2000E+02
  18.034  0.8598E-03  0.2000E+02
  18.044  0.7595E-03  0.2000E+02
  18.054  0.6699E-03  0.2000E+02
  18.064  0.5900E-03  0.2000E+02
  18.074  0.5188E-03  0.2000E+02
  18.084  0.4555E-03  0.2000E+02
  18.094  0.3993E-03  0.2000E+02
  18.104  0.3495E-03  0.2000E+02
  18.114  0.3055E-03  0.2000E+02
  18.124  0.2665E-03  0.2000E+02
  18.134  0.2322E-03  0.2000E+02
  18.144  0.2020E-03  0.2000E+02
  18.154  0.1754E-03  0.2000E+02
  18.164  0.1521E-03  0.2000E+02
  18.174  0.1317E-03  0.2000E+02
  18.184  0.1139E-03  0.2000E+02
  18.194  0.9826E-04  0.2000E+02
  18.204  0.8468E-04  0.2000E+02
  18.214  0.7285E-04  0.2000E+02
  18.224  0.6258E-04  0.2000E+02
  18.234  0.5367E-04  0.2000E+02
  18.244  0.4595E-04  0.2000E+02
  18.254  0.3928E-04  0.2000E+02
  18.264  0.3353E-04  0.2000E+02
  18.274  0.2857E-04  0.2000E+02
  18.284  0.2431E-04  0.2000E+02
  18.294  0.2065E-04  0.2000E+02
  18.304  0.1751E-04  0.2000E+02
  18.314  0.1483E-04  0.2000E+02
  18.324  0.1254E-04  0.2000E+02
  18.334  0.1058E-04  0.2000E+02
  18.344  0.8916E-05  0.2000E+02
  18.354  0.7501E-05  0.2000E+02
  18.364  0.6300E-05  0.2000E+02
  18.374  0.5283E-05  0.2000E+02
  18.384  0.4423E-05  0.2000E+02
  18.394  0.3697E-05  0.2000E+02
  18.404  0.3085E-05  0.2000E+02
  18.414  0.2570E-05  0.2000E+02
