#  E (eV)   dos(E)     Int dos(E) EFermi =    5.956 eV
  -6.234  0.5024E-06  0.5024E-08
  -6.224  0.8029E-06  0.1305E-07
  -6.214  0.1270E-05  0.2575E-07
  -6.204  0.1989E-05  0.4565E-07
  -6.194  0.3084E-05  0.7649E-07
  -6.184  0.4734E-05  0.1238E-06
  -6.174  0.7194E-05  0.1958E-06
  -6.164  0.1082E-04  0.3040E-06
  -6.154  0.1612E-04  0.4652E-06
  -6.144  0.2378E-04  0.7030E-06
  -6.134  0.3473E-04  0.1050E-05
  -6.124  0.5022E-04  0.1552E-05
  -6.114  0.7192E-04  0.2272E-05
  -6.104  0.1020E-03  0.3291E-05
  -6.094  0.1432E-03  0.4724E-05
  -6.084  0.1992E-03  0.6716E-05
  -6.074  0.2744E-03  0.9460E-05
  -6.064  0.3745E-03  0.1320E-04
  -6.054  0.5061E-03  0.1827E-04
  -6.044  0.6777E-03  0.2504E-04
  -6.034  0.8989E-03  0.3403E-04
  -6.024  0.1181E-02  0.4585E-04
  -6.014  0.1538E-02  0.6123E-04
  -6.004  0.1985E-02  0.8108E-04
  -5.994  0.2538E-02  0.1065E-03
  -5.984  0.3217E-02  0.1386E-03
  -5.974  0.4040E-02  0.1790E-03
  -5.964  0.5031E-02  0.2293E-03
  -5.954  0.6210E-02  0.2914E-03
  -5.944  0.7601E-02  0.3675E-03
  -5.934  0.9225E-02  0.4597E-03
  -5.924  0.1110E-01  0.5707E-03
  -5.914  0.1325E-01  0.7033E-03
  -5.904  0.1570E-01  0.8603E-03
  -5.894  0.1844E-01  0.1045E-02
  -5.884  0.2150E-01  0.1260E-02
  -5.874  0.2488E-01  0.1509E-02
  -5.864  0.2858E-01  0.1794E-02
  -5.854  0.3259E-01  0.2120E-02
  -5.844  0.3691E-01  0.2489E-02
  -5.834  0.4151E-01  0.2905E-02
  -5.824  0.4638E-01  0.3368E-02
  -5.814  0.5150E-01  0.3883E-02
  -5.804  0.5683E-01  0.4452E-02
  -5.794  0.6234E-01  0.5075E-02
  -5.784  0.6800E-01  0.5755E-02
  -5.774  0.7378E-01  0.6493E-02
  -5.764  0.7963E-01  0.7289E-02
  -5.754  0.8554E-01  0.8145E-02
  -5.744  0.9145E-01  0.9059E-02
  -5.734  0.9735E-01  0.1003E-01
  -5.724  0.1032E+00  0.1106E-01
  -5.714  0.1090E+00  0.1215E-01
  -5.704  0.1147E+00  0.1330E-01
  -5.694  0.1203E+00  0.1450E-01
  -5.684  0.1257E+00  0.1576E-01
  -5.674  0.1310E+00  0.1707E-01
  -5.664  0.1362E+00  0.1843E-01
  -5.654  0.1412E+00  0.1984E-01
  -5.644  0.1461E+00  0.2131E-01
  -5.634  0.1508E+00  0.2281E-01
  -5.624  0.1554E+00  0.2437E-01
  -5.614  0.1598E+00  0.2597E-01
  -5.604  0.1642E+00  0.2761E-01
  -5.594  0.1684E+00  0.2929E-01
  -5.584  0.1725E+00  0.3102E-01
  -5.574  0.1765E+00  0.3278E-01
  -5.564  0.1805E+00  0.3459E-01
  -5.554  0.1844E+00  0.3643E-01
  -5.544  0.1883E+00  0.3831E-01
  -5.534  0.1920E+00  0.4023E-01
  -5.524  0.1958E+00  0.4219E-01
  -5.514  0.1994E+00  0.4419E-01
  -5.504  0.2030E+00  0.4622E-01
  -5.494  0.2065E+00  0.4828E-01
  -5.484  0.2099E+00  0.5038E-01
  -5.474  0.2132E+00  0.5251E-01
  -5.464  0.2164E+00  0.5468E-01
  -5.454  0.2195E+00  0.5687E-01
  -5.444  0.2225E+00  0.5910E-01
  -5.434  0.2254E+00  0.6135E-01
  -5.424  0.2283E+00  0.6363E-01
  -5.414  0.2310E+00  0.6594E-01
  -5.404  0.2338E+00  0.6828E-01
  -5.394  0.2366E+00  0.7065E-01
  -5.384  0.2394E+00  0.7304E-01
  -5.374  0.2423E+00  0.7547E-01
  -5.364  0.2453E+00  0.7792E-01
  -5.354  0.2484E+00  0.8040E-01
  -5.344  0.2515E+00  0.8292E-01
  -5.334  0.2547E+00  0.8546E-01
  -5.324  0.2580E+00  0.8804E-01
  -5.314  0.2613E+00  0.9066E-01
  -5.304  0.2646E+00  0.9330E-01
  -5.294  0.2678E+00  0.9598E-01
  -5.284  0.2709E+00  0.9869E-01
  -5.274  0.2739E+00  0.1014E+00
  -5.264  0.2767E+00  0.1042E+00
  -5.254  0.2793E+00  0.1070E+00
  -5.244  0.2817E+00  0.1098E+00
  -5.234  0.2839E+00  0.1126E+00
  -5.224  0.2859E+00  0.1155E+00
  -5.214  0.2878E+00  0.1184E+00
  -5.204  0.2895E+00  0.1213E+00
  -5.194  0.2912E+00  0.1242E+00
  -5.184  0.2930E+00  0.1271E+00
  -5.174  0.2947E+00  0.1301E+00
  -5.164  0.2967E+00  0.1330E+00
  -5.154  0.2988E+00  0.1360E+00
  -5.144  0.3011E+00  0.1390E+00
  -5.134  0.3037E+00  0.1421E+00
  -5.124  0.3066E+00  0.1451E+00
  -5.114  0.3096E+00  0.1482E+00
  -5.104  0.3130E+00  0.1514E+00
  -5.094  0.3165E+00  0.1545E+00
  -5.084  0.3201E+00  0.1577E+00
  -5.074  0.3238E+00  0.1610E+00
  -5.064  0.3275E+00  0.1642E+00
  -5.054  0.3310E+00  0.1676E+00
  -5.044  0.3345E+00  0.1709E+00
  -5.034  0.3377E+00  0.1743E+00
  -5.024  0.3406E+00  0.1777E+00
  -5.014  0.3431E+00  0.1811E+00
  -5.004  0.3453E+00  0.1846E+00
  -4.994  0.3472E+00  0.1880E+00
  -4.984  0.3487E+00  0.1915E+00
  -4.974  0.3498E+00  0.1950E+00
  -4.964  0.3507E+00  0.1985E+00
  -4.954  0.3513E+00  0.2020E+00
  -4.944  0.3519E+00  0.2056E+00
  -4.934  0.3524E+00  0.2091E+00
  -4.924  0.3530E+00  0.2126E+00
  -4.914  0.3537E+00  0.2161E+00
  -4.904  0.3547E+00  0.2197E+00
  -4.894  0.3561E+00  0.2233E+00
  -4.884  0.3579E+00  0.2268E+00
  -4.874  0.3602E+00  0.2304E+00
  -4.864  0.3630E+00  0.2341E+00
  -4.854  0.3662E+00  0.2377E+00
  -4.844  0.3699E+00  0.2414E+00
  -4.834  0.3741E+00  0.2452E+00
  -4.824  0.3785E+00  0.2490E+00
  -4.814  0.3831E+00  0.2528E+00
  -4.804  0.3879E+00  0.2567E+00
  -4.794  0.3926E+00  0.2606E+00
  -4.784  0.3972E+00  0.2646E+00
  -4.774  0.4015E+00  0.2686E+00
  -4.764  0.4054E+00  0.2726E+00
  -4.754  0.4089E+00  0.2767E+00
  -4.744  0.4118E+00  0.2808E+00
  -4.734  0.4141E+00  0.2850E+00
  -4.724  0.4159E+00  0.2891E+00
  -4.714  0.4170E+00  0.2933E+00
  -4.704  0.4176E+00  0.2975E+00
  -4.694  0.4177E+00  0.3017E+00
  -4.684  0.4174E+00  0.3058E+00
  -4.674  0.4169E+00  0.3100E+00
  -4.664  0.4161E+00  0.3142E+00
  -4.654  0.4154E+00  0.3183E+00
  -4.644  0.4147E+00  0.3225E+00
  -4.634  0.4143E+00  0.3266E+00
  -4.624  0.4142E+00  0.3308E+00
  -4.614  0.4147E+00  0.3349E+00
  -4.604  0.4157E+00  0.3391E+00
  -4.594  0.4173E+00  0.3432E+00
  -4.584  0.4197E+00  0.3474E+00
  -4.574  0.4228E+00  0.3517E+00
  -4.564  0.4266E+00  0.3559E+00
  -4.554  0.4310E+00  0.3602E+00
  -4.544  0.4360E+00  0.3646E+00
  -4.534  0.4415E+00  0.3690E+00
  -4.524  0.4473E+00  0.3735E+00
  -4.514  0.4533E+00  0.3780E+00
  -4.504  0.4592E+00  0.3826E+00
  -4.494  0.4651E+00  0.3873E+00
  -4.484  0.4706E+00  0.3920E+00
  -4.474  0.4757E+00  0.3967E+00
  -4.464  0.4802E+00  0.4015E+00
  -4.454  0.4841E+00  0.4064E+00
  -4.444  0.4872E+00  0.4112E+00
  -4.434  0.4895E+00  0.4161E+00
  -4.424  0.4911E+00  0.4210E+00
  -4.414  0.4921E+00  0.4260E+00
  -4.404  0.4924E+00  0.4309E+00
  -4.394  0.4921E+00  0.4358E+00
  -4.384  0.4915E+00  0.4407E+00
  -4.374  0.4905E+00  0.4456E+00
  -4.364  0.4895E+00  0.4505E+00
  -4.354  0.4884E+00  0.4554E+00
  -4.344  0.4874E+00  0.4603E+00
  -4.334  0.4866E+00  0.4651E+00
  -4.324  0.4861E+00  0.4700E+00
  -4.314  0.4860E+00  0.4749E+00
  -4.304  0.4864E+00  0.4797E+00
  -4.294  0.4874E+00  0.4846E+00
  -4.284  0.4888E+00  0.4895E+00
  -4.274  0.4909E+00  0.4944E+00
  -4.264  0.4936E+00  0.4993E+00
  -4.254  0.4968E+00  0.5043E+00
  -4.244  0.5007E+00  0.5093E+00
  -4.234  0.5052E+00  0.5144E+00
  -4.224  0.5101E+00  0.5195E+00
  -4.214  0.5156E+00  0.5246E+00
  -4.204  0.5215E+00  0.5298E+00
  -4.194  0.5277E+00  0.5351E+00
  -4.184  0.5342E+00  0.5405E+00
  -4.174  0.5408E+00  0.5459E+00
  -4.164  0.5474E+00  0.5513E+00
  -4.154  0.5538E+00  0.5569E+00
  -4.144  0.5601E+00  0.5625E+00
  -4.134  0.5660E+00  0.5681E+00
  -4.124  0.5714E+00  0.5738E+00
  -4.114  0.5762E+00  0.5796E+00
  -4.104  0.5803E+00  0.5854E+00
  -4.094  0.5838E+00  0.5912E+00
  -4.084  0.5864E+00  0.5971E+00
  -4.074  0.5884E+00  0.6030E+00
  -4.064  0.5895E+00  0.6089E+00
  -4.054  0.5900E+00  0.6148E+00
  -4.044  0.5899E+00  0.6207E+00
  -4.034  0.5892E+00  0.6266E+00
  -4.024  0.5882E+00  0.6325E+00
  -4.014  0.5868E+00  0.6383E+00
  -4.004  0.5853E+00  0.6442E+00
  -3.994  0.5838E+00  0.6500E+00
  -3.984  0.5824E+00  0.6558E+00
  -3.974  0.5814E+00  0.6617E+00
  -3.964  0.5808E+00  0.6675E+00
  -3.954  0.5808E+00  0.6733E+00
  -3.944  0.5815E+00  0.6791E+00
  -3.934  0.5830E+00  0.6849E+00
  -3.924  0.5855E+00  0.6908E+00
  -3.914  0.5889E+00  0.6967E+00
  -3.904  0.5935E+00  0.7026E+00
  -3.894  0.5991E+00  0.7086E+00
  -3.884  0.6057E+00  0.7146E+00
  -3.874  0.6134E+00  0.7208E+00
  -3.864  0.6220E+00  0.7270E+00
  -3.854  0.6315E+00  0.7333E+00
  -3.844  0.6417E+00  0.7397E+00
  -3.834  0.6523E+00  0.7463E+00
  -3.824  0.6634E+00  0.7529E+00
  -3.814  0.6746E+00  0.7596E+00
  -3.804  0.6858E+00  0.7665E+00
  -3.794  0.6967E+00  0.7735E+00
  -3.784  0.7072E+00  0.7805E+00
  -3.774  0.7171E+00  0.7877E+00
  -3.764  0.7263E+00  0.7950E+00
  -3.754  0.7345E+00  0.8023E+00
  -3.744  0.7418E+00  0.8097E+00
  -3.734  0.7480E+00  0.8172E+00
  -3.724  0.7531E+00  0.8247E+00
  -3.714  0.7573E+00  0.8323E+00
  -3.704  0.7604E+00  0.8399E+00
  -3.694  0.7626E+00  0.8475E+00
  -3.684  0.7641E+00  0.8552E+00
  -3.674  0.7649E+00  0.8628E+00
  -3.664  0.7653E+00  0.8705E+00
  -3.654  0.7655E+00  0.8781E+00
  -3.644  0.7656E+00  0.8858E+00
  -3.634  0.7660E+00  0.8935E+00
  -3.624  0.7667E+00  0.9011E+00
  -3.614  0.7681E+00  0.9088E+00
  -3.604  0.7703E+00  0.9165E+00
  -3.594  0.7736E+00  0.9242E+00
  -3.584  0.7781E+00  0.9320E+00
  -3.574  0.7838E+00  0.9399E+00
  -3.564  0.7909E+00  0.9478E+00
  -3.554  0.7993E+00  0.9558E+00
  -3.544  0.8090E+00  0.9639E+00
  -3.534  0.8197E+00  0.9721E+00
  -3.524  0.8314E+00  0.9804E+00
  -3.514  0.8437E+00  0.9888E+00
  -3.504  0.8562E+00  0.9974E+00
  -3.494  0.8687E+00  0.1006E+01
  -3.484  0.8807E+00  0.1015E+01
  -3.474  0.8919E+00  0.1024E+01
  -3.464  0.9018E+00  0.1033E+01
  -3.454  0.9101E+00  0.1042E+01
  -3.444  0.9166E+00  0.1051E+01
  -3.434  0.9208E+00  0.1060E+01
  -3.424  0.9228E+00  0.1070E+01
  -3.414  0.9224E+00  0.1079E+01
  -3.404  0.9197E+00  0.1088E+01
  -3.394  0.9148E+00  0.1097E+01
  -3.384  0.9077E+00  0.1106E+01
  -3.374  0.8989E+00  0.1115E+01
  -3.364  0.8885E+00  0.1124E+01
  -3.354  0.8770E+00  0.1133E+01
  -3.344  0.8647E+00  0.1141E+01
  -3.334  0.8520E+00  0.1150E+01
  -3.324  0.8393E+00  0.1158E+01
  -3.314  0.8268E+00  0.1167E+01
  -3.304  0.8150E+00  0.1175E+01
  -3.294  0.8041E+00  0.1183E+01
  -3.284  0.7944E+00  0.1191E+01
  -3.274  0.7860E+00  0.1199E+01
  -3.264  0.7791E+00  0.1206E+01
  -3.254  0.7738E+00  0.1214E+01
  -3.244  0.7701E+00  0.1222E+01
  -3.234  0.7680E+00  0.1230E+01
  -3.224  0.7675E+00  0.1237E+01
  -3.214  0.7683E+00  0.1245E+01
  -3.204  0.7705E+00  0.1253E+01
  -3.194  0.7737E+00  0.1260E+01
  -3.184  0.7777E+00  0.1268E+01
  -3.174  0.7823E+00  0.1276E+01
  -3.164  0.7872E+00  0.1284E+01
  -3.154  0.7919E+00  0.1292E+01
  -3.144  0.7963E+00  0.1300E+01
  -3.134  0.8001E+00  0.1308E+01
  -3.124  0.8028E+00  0.1316E+01
  -3.114  0.8044E+00  0.1324E+01
  -3.104  0.8047E+00  0.1332E+01
  -3.094  0.8034E+00  0.1340E+01
  -3.084  0.8006E+00  0.1348E+01
  -3.074  0.7962E+00  0.1356E+01
  -3.064  0.7904E+00  0.1364E+01
  -3.054  0.7832E+00  0.1372E+01
  -3.044  0.7749E+00  0.1379E+01
  -3.034  0.7656E+00  0.1387E+01
  -3.024  0.7557E+00  0.1395E+01
  -3.014  0.7454E+00  0.1402E+01
  -3.004  0.7349E+00  0.1409E+01
  -2.994  0.7245E+00  0.1417E+01
  -2.984  0.7145E+00  0.1424E+01
  -2.974  0.7051E+00  0.1431E+01
  -2.964  0.6964E+00  0.1438E+01
  -2.954  0.6886E+00  0.1445E+01
  -2.944  0.6818E+00  0.1451E+01
  -2.934  0.6761E+00  0.1458E+01
  -2.924  0.6714E+00  0.1465E+01
  -2.914  0.6678E+00  0.1472E+01
  -2.904  0.6652E+00  0.1478E+01
  -2.894  0.6636E+00  0.1485E+01
  -2.884  0.6629E+00  0.1491E+01
  -2.874  0.6630E+00  0.1498E+01
  -2.864  0.6636E+00  0.1505E+01
  -2.854  0.6648E+00  0.1511E+01
  -2.844  0.6663E+00  0.1518E+01
  -2.834  0.6680E+00  0.1525E+01
  -2.824  0.6696E+00  0.1531E+01
  -2.814  0.6711E+00  0.1538E+01
  -2.804  0.6721E+00  0.1545E+01
  -2.794  0.6727E+00  0.1552E+01
  -2.784  0.6725E+00  0.1558E+01
  -2.774  0.6716E+00  0.1565E+01
  -2.764  0.6697E+00  0.1572E+01
  -2.754  0.6669E+00  0.1578E+01
  -2.744  0.6631E+00  0.1585E+01
  -2.734  0.6584E+00  0.1592E+01
  -2.724  0.6527E+00  0.1598E+01
  -2.714  0.6462E+00  0.1605E+01
  -2.704  0.6389E+00  0.1611E+01
  -2.694  0.6311E+00  0.1617E+01
  -2.684  0.6227E+00  0.1624E+01
  -2.674  0.6142E+00  0.1630E+01
  -2.664  0.6055E+00  0.1636E+01
  -2.654  0.5969E+00  0.1642E+01
  -2.644  0.5886E+00  0.1648E+01
  -2.634  0.5807E+00  0.1653E+01
  -2.624  0.5734E+00  0.1659E+01
  -2.614  0.5668E+00  0.1665E+01
  -2.604  0.5609E+00  0.1670E+01
  -2.594  0.5559E+00  0.1676E+01
  -2.584  0.5518E+00  0.1681E+01
  -2.574  0.5486E+00  0.1687E+01
  -2.564  0.5463E+00  0.1692E+01
  -2.554  0.5448E+00  0.1698E+01
  -2.544  0.5440E+00  0.1703E+01
  -2.534  0.5439E+00  0.1709E+01
  -2.524  0.5442E+00  0.1714E+01
  -2.514  0.5448E+00  0.1720E+01
  -2.504  0.5456E+00  0.1725E+01
  -2.494  0.5463E+00  0.1731E+01
  -2.484  0.5467E+00  0.1736E+01
  -2.474  0.5468E+00  0.1742E+01
  -2.464  0.5464E+00  0.1747E+01
  -2.454  0.5452E+00  0.1752E+01
  -2.444  0.5433E+00  0.1758E+01
  -2.434  0.5404E+00  0.1763E+01
  -2.424  0.5367E+00  0.1769E+01
  -2.414  0.5321E+00  0.1774E+01
  -2.404  0.5266E+00  0.1779E+01
  -2.394  0.5202E+00  0.1784E+01
  -2.384  0.5132E+00  0.1790E+01
  -2.374  0.5055E+00  0.1795E+01
  -2.364  0.4974E+00  0.1800E+01
  -2.354  0.4889E+00  0.1804E+01
  -2.344  0.4804E+00  0.1809E+01
  -2.334  0.4717E+00  0.1814E+01
  -2.324  0.4633E+00  0.1819E+01
  -2.314  0.4551E+00  0.1823E+01
  -2.304  0.4473E+00  0.1828E+01
  -2.294  0.4400E+00  0.1832E+01
  -2.284  0.4332E+00  0.1836E+01
  -2.274  0.4272E+00  0.1841E+01
  -2.264  0.4217E+00  0.1845E+01
  -2.254  0.4170E+00  0.1849E+01
  -2.244  0.4130E+00  0.1853E+01
  -2.234  0.4097E+00  0.1857E+01
  -2.224  0.4069E+00  0.1861E+01
  -2.214  0.4047E+00  0.1865E+01
  -2.204  0.4030E+00  0.1869E+01
  -2.194  0.4016E+00  0.1873E+01
  -2.184  0.4004E+00  0.1877E+01
  -2.174  0.3993E+00  0.1881E+01
  -2.164  0.3982E+00  0.1885E+01
  -2.154  0.3970E+00  0.1889E+01
  -2.144  0.3954E+00  0.1893E+01
  -2.134  0.3935E+00  0.1897E+01
  -2.124  0.3911E+00  0.1901E+01
  -2.114  0.3882E+00  0.1905E+01
  -2.104  0.3846E+00  0.1909E+01
  -2.094  0.3804E+00  0.1913E+01
  -2.084  0.3755E+00  0.1916E+01
  -2.074  0.3699E+00  0.1920E+01
  -2.064  0.3636E+00  0.1924E+01
  -2.054  0.3567E+00  0.1927E+01
  -2.044  0.3492E+00  0.1931E+01
  -2.034  0.3410E+00  0.1934E+01
  -2.024  0.3324E+00  0.1938E+01
  -2.014  0.3233E+00  0.1941E+01
  -2.004  0.3137E+00  0.1944E+01
  -1.994  0.3038E+00  0.1947E+01
  -1.984  0.2936E+00  0.1950E+01
  -1.974  0.2832E+00  0.1953E+01
  -1.964  0.2725E+00  0.1955E+01
  -1.954  0.2619E+00  0.1958E+01
  -1.944  0.2512E+00  0.1961E+01
  -1.934  0.2406E+00  0.1963E+01
  -1.924  0.2302E+00  0.1965E+01
  -1.914  0.2200E+00  0.1968E+01
  -1.904  0.2103E+00  0.1970E+01
  -1.894  0.2010E+00  0.1972E+01
  -1.884  0.1924E+00  0.1974E+01
  -1.874  0.1843E+00  0.1975E+01
  -1.864  0.1770E+00  0.1977E+01
  -1.854  0.1704E+00  0.1979E+01
  -1.844  0.1647E+00  0.1981E+01
  -1.834  0.1597E+00  0.1982E+01
  -1.824  0.1556E+00  0.1984E+01
  -1.814  0.1522E+00  0.1985E+01
  -1.804  0.1495E+00  0.1987E+01
  -1.794  0.1476E+00  0.1988E+01
  -1.784  0.1462E+00  0.1990E+01
  -1.774  0.1453E+00  0.1991E+01
  -1.764  0.1447E+00  0.1993E+01
  -1.754  0.1445E+00  0.1994E+01
  -1.744  0.1444E+00  0.1995E+01
  -1.734  0.1443E+00  0.1997E+01
  -1.724  0.1442E+00  0.1998E+01
  -1.714  0.1439E+00  0.2000E+01
  -1.704  0.1435E+00  0.2001E+01
  -1.694  0.1427E+00  0.2003E+01
  -1.684  0.1416E+00  0.2004E+01
  -1.674  0.1401E+00  0.2005E+01
  -1.664  0.1383E+00  0.2007E+01
  -1.654  0.1362E+00  0.2008E+01
  -1.644  0.1338E+00  0.2010E+01
  -1.634  0.1313E+00  0.2011E+01
  -1.624  0.1286E+00  0.2012E+01
  -1.614  0.1260E+00  0.2013E+01
  -1.604  0.1236E+00  0.2015E+01
  -1.594  0.1215E+00  0.2016E+01
  -1.584  0.1200E+00  0.2017E+01
  -1.574  0.1191E+00  0.2018E+01
  -1.564  0.1192E+00  0.2019E+01
  -1.554  0.1202E+00  0.2021E+01
  -1.544  0.1225E+00  0.2022E+01
  -1.534  0.1261E+00  0.2023E+01
  -1.524  0.1312E+00  0.2024E+01
  -1.514  0.1378E+00  0.2026E+01
  -1.504  0.1459E+00  0.2027E+01
  -1.494  0.1557E+00  0.2029E+01
  -1.484  0.1669E+00  0.2030E+01
  -1.474  0.1796E+00  0.2032E+01
  -1.464  0.1935E+00  0.2034E+01
  -1.454  0.2085E+00  0.2036E+01
  -1.444  0.2242E+00  0.2039E+01
  -1.434  0.2405E+00  0.2041E+01
  -1.424  0.2569E+00  0.2043E+01
  -1.414  0.2732E+00  0.2046E+01
  -1.404  0.2890E+00  0.2049E+01
  -1.394  0.3040E+00  0.2052E+01
  -1.384  0.3178E+00  0.2055E+01
  -1.374  0.3301E+00  0.2059E+01
  -1.364  0.3408E+00  0.2062E+01
  -1.354  0.3496E+00  0.2066E+01
  -1.344  0.3564E+00  0.2069E+01
  -1.334  0.3612E+00  0.2073E+01
  -1.324  0.3640E+00  0.2076E+01
  -1.314  0.3648E+00  0.2080E+01
  -1.304  0.3640E+00  0.2084E+01
  -1.294  0.3616E+00  0.2087E+01
  -1.284  0.3580E+00  0.2091E+01
  -1.274  0.3536E+00  0.2094E+01
  -1.264  0.3486E+00  0.2098E+01
  -1.254  0.3435E+00  0.2101E+01
  -1.244  0.3387E+00  0.2105E+01
  -1.234  0.3344E+00  0.2108E+01
  -1.224  0.3312E+00  0.2111E+01
  -1.214  0.3293E+00  0.2115E+01
  -1.204  0.3291E+00  0.2118E+01
  -1.194  0.3307E+00  0.2121E+01
  -1.184  0.3345E+00  0.2125E+01
  -1.174  0.3404E+00  0.2128E+01
  -1.164  0.3486E+00  0.2131E+01
  -1.154  0.3592E+00  0.2135E+01
  -1.144  0.3720E+00  0.2139E+01
  -1.134  0.3870E+00  0.2143E+01
  -1.124  0.4039E+00  0.2147E+01
  -1.114  0.4225E+00  0.2151E+01
  -1.104  0.4426E+00  0.2155E+01
  -1.094  0.4636E+00  0.2160E+01
  -1.084  0.4854E+00  0.2165E+01
  -1.074  0.5074E+00  0.2170E+01
  -1.064  0.5294E+00  0.2175E+01
  -1.054  0.5508E+00  0.2181E+01
  -1.044  0.5715E+00  0.2186E+01
  -1.034  0.5912E+00  0.2192E+01
  -1.024  0.6097E+00  0.2198E+01
  -1.014  0.6269E+00  0.2205E+01
  -1.004  0.6428E+00  0.2211E+01
  -0.994  0.6576E+00  0.2218E+01
  -0.984  0.6714E+00  0.2224E+01
  -0.974  0.6845E+00  0.2231E+01
  -0.964  0.6975E+00  0.2238E+01
  -0.954  0.7106E+00  0.2245E+01
  -0.944  0.7244E+00  0.2253E+01
  -0.934  0.7395E+00  0.2260E+01
  -0.924  0.7562E+00  0.2268E+01
  -0.914  0.7751E+00  0.2275E+01
  -0.904  0.7965E+00  0.2283E+01
  -0.894  0.8208E+00  0.2291E+01
  -0.884  0.8480E+00  0.2300E+01
  -0.874  0.8783E+00  0.2309E+01
  -0.864  0.9115E+00  0.2318E+01
  -0.854  0.9476E+00  0.2327E+01
  -0.844  0.9859E+00  0.2337E+01
  -0.834  0.1026E+01  0.2347E+01
  -0.824  0.1068E+01  0.2358E+01
  -0.814  0.1110E+01  0.2369E+01
  -0.804  0.1152E+01  0.2381E+01
  -0.794  0.1193E+01  0.2393E+01
  -0.784  0.1232E+01  0.2405E+01
  -0.774  0.1269E+01  0.2418E+01
  -0.764  0.1302E+01  0.2431E+01
  -0.754  0.1332E+01  0.2444E+01
  -0.744  0.1357E+01  0.2458E+01
  -0.734  0.1376E+01  0.2471E+01
  -0.724  0.1391E+01  0.2485E+01
  -0.714  0.1399E+01  0.2499E+01
  -0.704  0.1402E+01  0.2513E+01
  -0.694  0.1400E+01  0.2527E+01
  -0.684  0.1392E+01  0.2541E+01
  -0.674  0.1378E+01  0.2555E+01
  -0.664  0.1361E+01  0.2569E+01
  -0.654  0.1339E+01  0.2582E+01
  -0.644  0.1313E+01  0.2595E+01
  -0.634  0.1285E+01  0.2608E+01
  -0.624  0.1254E+01  0.2620E+01
  -0.614  0.1222E+01  0.2633E+01
  -0.604  0.1188E+01  0.2645E+01
  -0.594  0.1154E+01  0.2656E+01
  -0.584  0.1120E+01  0.2667E+01
  -0.574  0.1087E+01  0.2678E+01
  -0.564  0.1055E+01  0.2689E+01
  -0.554  0.1024E+01  0.2699E+01
  -0.544  0.9957E+00  0.2709E+01
  -0.534  0.9693E+00  0.2719E+01
  -0.524  0.9451E+00  0.2728E+01
  -0.514  0.9233E+00  0.2737E+01
  -0.504  0.9040E+00  0.2746E+01
  -0.494  0.8871E+00  0.2755E+01
  -0.484  0.8724E+00  0.2764E+01
  -0.474  0.8598E+00  0.2773E+01
  -0.464  0.8490E+00  0.2781E+01
  -0.454  0.8398E+00  0.2789E+01
  -0.444  0.8319E+00  0.2798E+01
  -0.434  0.8249E+00  0.2806E+01
  -0.424  0.8186E+00  0.2814E+01
  -0.414  0.8127E+00  0.2822E+01
  -0.404  0.8070E+00  0.2830E+01
  -0.394  0.8011E+00  0.2838E+01
  -0.384  0.7951E+00  0.2846E+01
  -0.374  0.7887E+00  0.2854E+01
  -0.364  0.7820E+00  0.2862E+01
  -0.354  0.7747E+00  0.2870E+01
  -0.344  0.7671E+00  0.2877E+01
  -0.334  0.7590E+00  0.2885E+01
  -0.324  0.7507E+00  0.2893E+01
  -0.314  0.7422E+00  0.2900E+01
  -0.304  0.7335E+00  0.2907E+01
  -0.294  0.7249E+00  0.2915E+01
  -0.284  0.7164E+00  0.2922E+01
  -0.274  0.7081E+00  0.2929E+01
  -0.264  0.7001E+00  0.2936E+01
  -0.254  0.6924E+00  0.2943E+01
  -0.244  0.6850E+00  0.2950E+01
  -0.234  0.6779E+00  0.2956E+01
  -0.224  0.6710E+00  0.2963E+01
  -0.214  0.6643E+00  0.2970E+01
  -0.204  0.6577E+00  0.2976E+01
  -0.194  0.6511E+00  0.2983E+01
  -0.184  0.6445E+00  0.2989E+01
  -0.174  0.6377E+00  0.2996E+01
  -0.164  0.6307E+00  0.3002E+01
  -0.154  0.6236E+00  0.3008E+01
  -0.144  0.6163E+00  0.3014E+01
  -0.134  0.6090E+00  0.3020E+01
  -0.124  0.6016E+00  0.3026E+01
  -0.114  0.5944E+00  0.3032E+01
  -0.104  0.5875E+00  0.3038E+01
  -0.094  0.5811E+00  0.3044E+01
  -0.084  0.5752E+00  0.3050E+01
  -0.074  0.5701E+00  0.3056E+01
  -0.064  0.5658E+00  0.3061E+01
  -0.054  0.5624E+00  0.3067E+01
  -0.044  0.5599E+00  0.3072E+01
  -0.034  0.5583E+00  0.3078E+01
  -0.024  0.5575E+00  0.3084E+01
  -0.014  0.5573E+00  0.3089E+01
  -0.004  0.5576E+00  0.3095E+01
   0.006  0.5581E+00  0.3100E+01
   0.016  0.5585E+00  0.3106E+01
   0.026  0.5588E+00  0.3111E+01
   0.036  0.5586E+00  0.3117E+01
   0.046  0.5577E+00  0.3123E+01
   0.056  0.5559E+00  0.3128E+01
   0.066  0.5533E+00  0.3134E+01
   0.076  0.5496E+00  0.3139E+01
   0.086  0.5450E+00  0.3145E+01
   0.096  0.5394E+00  0.3150E+01
   0.106  0.5331E+00  0.3155E+01
   0.116  0.5261E+00  0.3161E+01
   0.126  0.5187E+00  0.3166E+01
   0.136  0.5111E+00  0.3171E+01
   0.146  0.5035E+00  0.3176E+01
   0.156  0.4961E+00  0.3181E+01
   0.166  0.4891E+00  0.3186E+01
   0.176  0.4826E+00  0.3191E+01
   0.186  0.4767E+00  0.3195E+01
   0.196  0.4715E+00  0.3200E+01
   0.206  0.4671E+00  0.3205E+01
   0.216  0.4633E+00  0.3209E+01
   0.226  0.4601E+00  0.3214E+01
   0.236  0.4575E+00  0.3219E+01
   0.246  0.4553E+00  0.3223E+01
   0.256  0.4535E+00  0.3228E+01
   0.266  0.4519E+00  0.3232E+01
   0.276  0.4505E+00  0.3237E+01
   0.286  0.4493E+00  0.3241E+01
   0.296  0.4481E+00  0.3246E+01
   0.306  0.4470E+00  0.3250E+01
   0.316  0.4460E+00  0.3255E+01
   0.326  0.4450E+00  0.3259E+01
   0.336  0.4442E+00  0.3264E+01
   0.346  0.4436E+00  0.3268E+01
   0.356  0.4431E+00  0.3272E+01
   0.366  0.4427E+00  0.3277E+01
   0.376  0.4425E+00  0.3281E+01
   0.386  0.4424E+00  0.3286E+01
   0.396  0.4424E+00  0.3290E+01
   0.406  0.4422E+00  0.3295E+01
   0.416  0.4418E+00  0.3299E+01
   0.426  0.4411E+00  0.3303E+01
   0.436  0.4400E+00  0.3308E+01
   0.446  0.4382E+00  0.3312E+01
   0.456  0.4358E+00  0.3317E+01
   0.466  0.4325E+00  0.3321E+01
   0.476  0.4285E+00  0.3325E+01
   0.486  0.4236E+00  0.3329E+01
   0.496  0.4181E+00  0.3334E+01
   0.506  0.4119E+00  0.3338E+01
   0.516  0.4053E+00  0.3342E+01
   0.526  0.3984E+00  0.3346E+01
   0.536  0.3915E+00  0.3350E+01
   0.546  0.3848E+00  0.3353E+01
   0.556  0.3785E+00  0.3357E+01
   0.566  0.3728E+00  0.3361E+01
   0.576  0.3680E+00  0.3365E+01
   0.586  0.3641E+00  0.3368E+01
   0.596  0.3612E+00  0.3372E+01
   0.606  0.3594E+00  0.3376E+01
   0.616  0.3585E+00  0.3379E+01
   0.626  0.3585E+00  0.3383E+01
   0.636  0.3593E+00  0.3386E+01
   0.646  0.3605E+00  0.3390E+01
   0.656  0.3620E+00  0.3393E+01
   0.666  0.3635E+00  0.3397E+01
   0.676  0.3647E+00  0.3401E+01
   0.686  0.3655E+00  0.3404E+01
   0.696  0.3656E+00  0.3408E+01
   0.706  0.3648E+00  0.3412E+01
   0.716  0.3632E+00  0.3415E+01
   0.726  0.3606E+00  0.3419E+01
   0.736  0.3572E+00  0.3423E+01
   0.746  0.3531E+00  0.3426E+01
   0.756  0.3483E+00  0.3430E+01
   0.766  0.3433E+00  0.3433E+01
   0.776  0.3381E+00  0.3436E+01
   0.786  0.3332E+00  0.3440E+01
   0.796  0.3287E+00  0.3443E+01
   0.806  0.3248E+00  0.3446E+01
   0.816  0.3219E+00  0.3449E+01
   0.826  0.3200E+00  0.3453E+01
   0.836  0.3193E+00  0.3456E+01
   0.846  0.3197E+00  0.3459E+01
   0.856  0.3213E+00  0.3462E+01
   0.866  0.3239E+00  0.3465E+01
   0.876  0.3273E+00  0.3469E+01
   0.886  0.3314E+00  0.3472E+01
   0.896  0.3358E+00  0.3475E+01
   0.906  0.3402E+00  0.3479E+01
   0.916  0.3443E+00  0.3482E+01
   0.926  0.3479E+00  0.3486E+01
   0.936  0.3507E+00  0.3489E+01
   0.946  0.3523E+00  0.3493E+01
   0.956  0.3527E+00  0.3496E+01
   0.966  0.3516E+00  0.3500E+01
   0.976  0.3490E+00  0.3503E+01
   0.986  0.3449E+00  0.3507E+01
   0.996  0.3393E+00  0.3510E+01
   1.006  0.3324E+00  0.3513E+01
   1.016  0.3244E+00  0.3517E+01
   1.026  0.3154E+00  0.3520E+01
   1.036  0.3059E+00  0.3523E+01
   1.046  0.2960E+00  0.3526E+01
   1.056  0.2862E+00  0.3529E+01
   1.066  0.2766E+00  0.3532E+01
   1.076  0.2677E+00  0.3534E+01
   1.086  0.2596E+00  0.3537E+01
   1.096  0.2527E+00  0.3539E+01
   1.106  0.2471E+00  0.3542E+01
   1.116  0.2428E+00  0.3544E+01
   1.126  0.2401E+00  0.3547E+01
   1.136  0.2387E+00  0.3549E+01
   1.146  0.2388E+00  0.3551E+01
   1.156  0.2400E+00  0.3554E+01
   1.166  0.2424E+00  0.3556E+01
   1.176  0.2456E+00  0.3559E+01
   1.186  0.2494E+00  0.3561E+01
   1.196  0.2536E+00  0.3564E+01
   1.206  0.2579E+00  0.3566E+01
   1.216  0.2621E+00  0.3569E+01
   1.226  0.2659E+00  0.3572E+01
   1.236  0.2694E+00  0.3574E+01
   1.246  0.2722E+00  0.3577E+01
   1.256  0.2743E+00  0.3580E+01
   1.266  0.2758E+00  0.3582E+01
   1.276  0.2766E+00  0.3585E+01
   1.286  0.2768E+00  0.3588E+01
   1.296  0.2764E+00  0.3591E+01
   1.306  0.2757E+00  0.3594E+01
   1.316  0.2748E+00  0.3596E+01
   1.326  0.2736E+00  0.3599E+01
   1.336  0.2725E+00  0.3602E+01
   1.346  0.2715E+00  0.3604E+01
   1.356  0.2706E+00  0.3607E+01
   1.366  0.2699E+00  0.3610E+01
   1.376  0.2695E+00  0.3613E+01
   1.386  0.2692E+00  0.3615E+01
   1.396  0.2690E+00  0.3618E+01
   1.406  0.2689E+00  0.3621E+01
   1.416  0.2688E+00  0.3623E+01
   1.426  0.2685E+00  0.3626E+01
   1.436  0.2680E+00  0.3629E+01
   1.446  0.2672E+00  0.3631E+01
   1.456  0.2660E+00  0.3634E+01
   1.466  0.2643E+00  0.3637E+01
   1.476  0.2622E+00  0.3639E+01
   1.486  0.2598E+00  0.3642E+01
   1.496  0.2570E+00  0.3644E+01
   1.506  0.2542E+00  0.3647E+01
   1.516  0.2514E+00  0.3650E+01
   1.526  0.2489E+00  0.3652E+01
   1.536  0.2469E+00  0.3654E+01
   1.546  0.2458E+00  0.3657E+01
   1.556  0.2457E+00  0.3659E+01
   1.566  0.2471E+00  0.3662E+01
   1.576  0.2501E+00  0.3664E+01
   1.586  0.2550E+00  0.3667E+01
   1.596  0.2619E+00  0.3670E+01
   1.606  0.2711E+00  0.3672E+01
   1.616  0.2825E+00  0.3675E+01
   1.626  0.2962E+00  0.3678E+01
   1.636  0.3123E+00  0.3681E+01
   1.646  0.3305E+00  0.3684E+01
   1.656  0.3507E+00  0.3688E+01
   1.666  0.3729E+00  0.3692E+01
   1.676  0.3967E+00  0.3696E+01
   1.686  0.4220E+00  0.3700E+01
   1.696  0.4485E+00  0.3704E+01
   1.706  0.4759E+00  0.3709E+01
   1.716  0.5042E+00  0.3714E+01
   1.726  0.5330E+00  0.3720E+01
   1.736  0.5621E+00  0.3725E+01
   1.746  0.5915E+00  0.3731E+01
   1.756  0.6210E+00  0.3737E+01
   1.766  0.6505E+00  0.3744E+01
   1.776  0.6799E+00  0.3751E+01
   1.786  0.7092E+00  0.3758E+01
   1.796  0.7382E+00  0.3765E+01
   1.806  0.7670E+00  0.3773E+01
   1.816  0.7955E+00  0.3781E+01
   1.826  0.8236E+00  0.3789E+01
   1.836  0.8514E+00  0.3797E+01
   1.846  0.8787E+00  0.3806E+01
   1.856  0.9056E+00  0.3815E+01
   1.866  0.9320E+00  0.3825E+01
   1.876  0.9579E+00  0.3834E+01
   1.886  0.9831E+00  0.3844E+01
   1.896  0.1008E+01  0.3854E+01
   1.906  0.1031E+01  0.3864E+01
   1.916  0.1054E+01  0.3875E+01
   1.926  0.1076E+01  0.3886E+01
   1.936  0.1097E+01  0.3897E+01
   1.946  0.1117E+01  0.3908E+01
   1.956  0.1135E+01  0.3919E+01
   1.966  0.1153E+01  0.3931E+01
   1.976  0.1168E+01  0.3942E+01
   1.986  0.1182E+01  0.3954E+01
   1.996  0.1193E+01  0.3966E+01
   2.006  0.1203E+01  0.3978E+01
   2.016  0.1210E+01  0.3990E+01
   2.026  0.1215E+01  0.4002E+01
   2.036  0.1218E+01  0.4015E+01
   2.046  0.1218E+01  0.4027E+01
   2.056  0.1215E+01  0.4039E+01
   2.066  0.1211E+01  0.4051E+01
   2.076  0.1203E+01  0.4063E+01
   2.086  0.1194E+01  0.4075E+01
   2.096  0.1183E+01  0.4087E+01
   2.106  0.1171E+01  0.4099E+01
   2.116  0.1157E+01  0.4110E+01
   2.126  0.1143E+01  0.4122E+01
   2.136  0.1128E+01  0.4133E+01
   2.146  0.1114E+01  0.4144E+01
   2.156  0.1100E+01  0.4155E+01
   2.166  0.1087E+01  0.4166E+01
   2.176  0.1075E+01  0.4177E+01
   2.186  0.1064E+01  0.4187E+01
   2.196  0.1056E+01  0.4198E+01
   2.206  0.1049E+01  0.4208E+01
   2.216  0.1044E+01  0.4219E+01
   2.226  0.1040E+01  0.4229E+01
   2.236  0.1039E+01  0.4239E+01
   2.246  0.1038E+01  0.4250E+01
   2.256  0.1040E+01  0.4260E+01
   2.266  0.1042E+01  0.4271E+01
   2.276  0.1045E+01  0.4281E+01
   2.286  0.1048E+01  0.4292E+01
   2.296  0.1051E+01  0.4302E+01
   2.306  0.1055E+01  0.4313E+01
   2.316  0.1058E+01  0.4323E+01
   2.326  0.1060E+01  0.4334E+01
   2.336  0.1062E+01  0.4344E+01
   2.346  0.1064E+01  0.4355E+01
   2.356  0.1065E+01  0.4366E+01
   2.366  0.1065E+01  0.4376E+01
   2.376  0.1065E+01  0.4387E+01
   2.386  0.1064E+01  0.4398E+01
   2.396  0.1063E+01  0.4408E+01
   2.406  0.1063E+01  0.4419E+01
   2.416  0.1062E+01  0.4430E+01
   2.426  0.1063E+01  0.4440E+01
   2.436  0.1064E+01  0.4451E+01
   2.446  0.1065E+01  0.4461E+01
   2.456  0.1068E+01  0.4472E+01
   2.466  0.1071E+01  0.4483E+01
   2.476  0.1075E+01  0.4494E+01
   2.486  0.1080E+01  0.4504E+01
   2.496  0.1085E+01  0.4515E+01
   2.506  0.1090E+01  0.4526E+01
   2.516  0.1095E+01  0.4537E+01
   2.526  0.1100E+01  0.4548E+01
   2.536  0.1104E+01  0.4559E+01
   2.546  0.1108E+01  0.4570E+01
   2.556  0.1110E+01  0.4581E+01
   2.566  0.1111E+01  0.4592E+01
   2.576  0.1110E+01  0.4604E+01
   2.586  0.1108E+01  0.4615E+01
   2.596  0.1105E+01  0.4626E+01
   2.606  0.1100E+01  0.4637E+01
   2.616  0.1094E+01  0.4648E+01
   2.626  0.1088E+01  0.4658E+01
   2.636  0.1081E+01  0.4669E+01
   2.646  0.1074E+01  0.4680E+01
   2.656  0.1067E+01  0.4691E+01
   2.666  0.1060E+01  0.4701E+01
   2.676  0.1055E+01  0.4712E+01
   2.686  0.1050E+01  0.4722E+01
   2.696  0.1047E+01  0.4733E+01
   2.706  0.1046E+01  0.4743E+01
   2.716  0.1046E+01  0.4754E+01
   2.726  0.1049E+01  0.4764E+01
   2.736  0.1052E+01  0.4775E+01
   2.746  0.1058E+01  0.4785E+01
   2.756  0.1065E+01  0.4796E+01
   2.766  0.1073E+01  0.4807E+01
   2.776  0.1083E+01  0.4818E+01
   2.786  0.1093E+01  0.4828E+01
   2.796  0.1104E+01  0.4840E+01
   2.806  0.1115E+01  0.4851E+01
   2.816  0.1126E+01  0.4862E+01
   2.826  0.1137E+01  0.4873E+01
   2.836  0.1148E+01  0.4885E+01
   2.846  0.1158E+01  0.4896E+01
   2.856  0.1167E+01  0.4908E+01
   2.866  0.1175E+01  0.4920E+01
   2.876  0.1182E+01  0.4932E+01
   2.886  0.1188E+01  0.4943E+01
   2.896  0.1194E+01  0.4955E+01
   2.906  0.1198E+01  0.4967E+01
   2.916  0.1202E+01  0.4979E+01
   2.926  0.1205E+01  0.4991E+01
   2.936  0.1208E+01  0.5004E+01
   2.946  0.1211E+01  0.5016E+01
   2.956  0.1214E+01  0.5028E+01
   2.966  0.1217E+01  0.5040E+01
   2.976  0.1222E+01  0.5052E+01
   2.986  0.1227E+01  0.5064E+01
   2.996  0.1234E+01  0.5077E+01
   3.006  0.1242E+01  0.5089E+01
   3.016  0.1252E+01  0.5102E+01
   3.026  0.1263E+01  0.5114E+01
   3.036  0.1276E+01  0.5127E+01
   3.046  0.1291E+01  0.5140E+01
   3.056  0.1307E+01  0.5153E+01
   3.066  0.1325E+01  0.5166E+01
   3.076  0.1343E+01  0.5180E+01
   3.086  0.1363E+01  0.5193E+01
   3.096  0.1383E+01  0.5207E+01
   3.106  0.1403E+01  0.5221E+01
   3.116  0.1424E+01  0.5236E+01
   3.126  0.1444E+01  0.5250E+01
   3.136  0.1464E+01  0.5265E+01
   3.146  0.1483E+01  0.5279E+01
   3.156  0.1500E+01  0.5294E+01
   3.166  0.1516E+01  0.5310E+01
   3.176  0.1530E+01  0.5325E+01
   3.186  0.1543E+01  0.5340E+01
   3.196  0.1553E+01  0.5356E+01
   3.206  0.1560E+01  0.5371E+01
   3.216  0.1565E+01  0.5387E+01
   3.226  0.1568E+01  0.5403E+01
   3.236  0.1568E+01  0.5418E+01
   3.246  0.1565E+01  0.5434E+01
   3.256  0.1559E+01  0.5450E+01
   3.266  0.1551E+01  0.5465E+01
   3.276  0.1541E+01  0.5481E+01
   3.286  0.1528E+01  0.5496E+01
   3.296  0.1514E+01  0.5511E+01
   3.306  0.1498E+01  0.5526E+01
   3.316  0.1481E+01  0.5541E+01
   3.326  0.1463E+01  0.5555E+01
   3.336  0.1445E+01  0.5570E+01
   3.346  0.1427E+01  0.5584E+01
   3.356  0.1410E+01  0.5598E+01
   3.366  0.1395E+01  0.5612E+01
   3.376  0.1382E+01  0.5626E+01
   3.386  0.1372E+01  0.5640E+01
   3.396  0.1365E+01  0.5653E+01
   3.406  0.1361E+01  0.5667E+01
   3.416  0.1362E+01  0.5681E+01
   3.426  0.1367E+01  0.5694E+01
   3.436  0.1376E+01  0.5708E+01
   3.446  0.1389E+01  0.5722E+01
   3.456  0.1405E+01  0.5736E+01
   3.466  0.1425E+01  0.5750E+01
   3.476  0.1448E+01  0.5765E+01
   3.486  0.1472E+01  0.5779E+01
   3.496  0.1498E+01  0.5794E+01
   3.506  0.1523E+01  0.5810E+01
   3.516  0.1548E+01  0.5825E+01
   3.526  0.1571E+01  0.5841E+01
   3.536  0.1591E+01  0.5857E+01
   3.546  0.1608E+01  0.5873E+01
   3.556  0.1620E+01  0.5889E+01
   3.566  0.1628E+01  0.5905E+01
   3.576  0.1630E+01  0.5922E+01
   3.586  0.1627E+01  0.5938E+01
   3.596  0.1619E+01  0.5954E+01
   3.606  0.1607E+01  0.5970E+01
   3.616  0.1590E+01  0.5986E+01
   3.626  0.1569E+01  0.6002E+01
   3.636  0.1545E+01  0.6017E+01
   3.646  0.1519E+01  0.6032E+01
   3.656  0.1491E+01  0.6047E+01
   3.666  0.1464E+01  0.6062E+01
   3.676  0.1436E+01  0.6076E+01
   3.686  0.1411E+01  0.6090E+01
   3.696  0.1387E+01  0.6104E+01
   3.706  0.1366E+01  0.6118E+01
   3.716  0.1348E+01  0.6131E+01
   3.726  0.1334E+01  0.6145E+01
   3.736  0.1323E+01  0.6158E+01
   3.746  0.1316E+01  0.6171E+01
   3.756  0.1313E+01  0.6184E+01
   3.766  0.1313E+01  0.6197E+01
   3.776  0.1316E+01  0.6211E+01
   3.786  0.1321E+01  0.6224E+01
   3.796  0.1328E+01  0.6237E+01
   3.806  0.1337E+01  0.6250E+01
   3.816  0.1346E+01  0.6264E+01
   3.826  0.1356E+01  0.6277E+01
   3.836  0.1366E+01  0.6291E+01
   3.846  0.1376E+01  0.6305E+01
   3.856  0.1384E+01  0.6319E+01
   3.866  0.1391E+01  0.6333E+01
   3.876  0.1397E+01  0.6347E+01
   3.886  0.1401E+01  0.6361E+01
   3.896  0.1403E+01  0.6375E+01
   3.906  0.1404E+01  0.6389E+01
   3.916  0.1403E+01  0.6403E+01
   3.926  0.1400E+01  0.6417E+01
   3.936  0.1396E+01  0.6431E+01
   3.946  0.1391E+01  0.6445E+01
   3.956  0.1385E+01  0.6458E+01
   3.966  0.1378E+01  0.6472E+01
   3.976  0.1371E+01  0.6486E+01
   3.986  0.1363E+01  0.6500E+01
   3.996  0.1355E+01  0.6513E+01
   4.006  0.1347E+01  0.6527E+01
   4.016  0.1340E+01  0.6540E+01
   4.026  0.1333E+01  0.6553E+01
   4.036  0.1326E+01  0.6567E+01
   4.046  0.1320E+01  0.6580E+01
   4.056  0.1315E+01  0.6593E+01
   4.066  0.1311E+01  0.6606E+01
   4.076  0.1307E+01  0.6619E+01
   4.086  0.1305E+01  0.6632E+01
   4.096  0.1303E+01  0.6645E+01
   4.106  0.1302E+01  0.6658E+01
   4.116  0.1301E+01  0.6671E+01
   4.126  0.1301E+01  0.6684E+01
   4.136  0.1302E+01  0.6697E+01
   4.146  0.1303E+01  0.6710E+01
   4.156  0.1303E+01  0.6723E+01
   4.166  0.1304E+01  0.6736E+01
   4.176  0.1304E+01  0.6749E+01
   4.186  0.1304E+01  0.6762E+01
   4.196  0.1303E+01  0.6775E+01
   4.206  0.1301E+01  0.6788E+01
   4.216  0.1299E+01  0.6801E+01
   4.226  0.1295E+01  0.6814E+01
   4.236  0.1291E+01  0.6827E+01
   4.246  0.1285E+01  0.6840E+01
   4.256  0.1279E+01  0.6853E+01
   4.266  0.1272E+01  0.6866E+01
   4.276  0.1264E+01  0.6878E+01
   4.286  0.1257E+01  0.6891E+01
   4.296  0.1249E+01  0.6903E+01
   4.306  0.1242E+01  0.6916E+01
   4.316  0.1235E+01  0.6928E+01
   4.326  0.1229E+01  0.6940E+01
   4.336  0.1224E+01  0.6953E+01
   4.346  0.1220E+01  0.6965E+01
   4.356  0.1217E+01  0.6977E+01
   4.366  0.1216E+01  0.6989E+01
   4.376  0.1217E+01  0.7001E+01
   4.386  0.1218E+01  0.7014E+01
   4.396  0.1221E+01  0.7026E+01
   4.406  0.1225E+01  0.7038E+01
   4.416  0.1230E+01  0.7050E+01
   4.426  0.1235E+01  0.7063E+01
   4.436  0.1240E+01  0.7075E+01
   4.446  0.1245E+01  0.7087E+01
   4.456  0.1249E+01  0.7100E+01
   4.466  0.1253E+01  0.7112E+01
   4.476  0.1255E+01  0.7125E+01
   4.486  0.1256E+01  0.7138E+01
   4.496  0.1256E+01  0.7150E+01
   4.506  0.1254E+01  0.7163E+01
   4.516  0.1250E+01  0.7175E+01
   4.526  0.1246E+01  0.7188E+01
   4.536  0.1239E+01  0.7200E+01
   4.546  0.1232E+01  0.7212E+01
   4.556  0.1224E+01  0.7225E+01
   4.566  0.1215E+01  0.7237E+01
   4.576  0.1206E+01  0.7249E+01
   4.586  0.1196E+01  0.7261E+01
   4.596  0.1187E+01  0.7273E+01
   4.606  0.1177E+01  0.7284E+01
   4.616  0.1168E+01  0.7296E+01
   4.626  0.1160E+01  0.7308E+01
   4.636  0.1152E+01  0.7319E+01
   4.646  0.1144E+01  0.7331E+01
   4.656  0.1137E+01  0.7342E+01
   4.666  0.1130E+01  0.7353E+01
   4.676  0.1124E+01  0.7365E+01
   4.686  0.1117E+01  0.7376E+01
   4.696  0.1110E+01  0.7387E+01
   4.706  0.1102E+01  0.7398E+01
   4.716  0.1094E+01  0.7409E+01
   4.726  0.1086E+01  0.7420E+01
   4.736  0.1076E+01  0.7430E+01
   4.746  0.1065E+01  0.7441E+01
   4.756  0.1054E+01  0.7452E+01
   4.766  0.1042E+01  0.7462E+01
   4.776  0.1028E+01  0.7472E+01
   4.786  0.1015E+01  0.7482E+01
   4.796  0.1000E+01  0.7492E+01
   4.806  0.9852E+00  0.7502E+01
   4.816  0.9701E+00  0.7512E+01
   4.826  0.9549E+00  0.7522E+01
   4.836  0.9397E+00  0.7531E+01
   4.846  0.9246E+00  0.7540E+01
   4.856  0.9097E+00  0.7549E+01
   4.866  0.8951E+00  0.7558E+01
   4.876  0.8807E+00  0.7567E+01
   4.886  0.8665E+00  0.7576E+01
   4.896  0.8525E+00  0.7584E+01
   4.906  0.8387E+00  0.7593E+01
   4.916  0.8250E+00  0.7601E+01
   4.926  0.8113E+00  0.7609E+01
   4.936  0.7977E+00  0.7617E+01
   4.946  0.7841E+00  0.7625E+01
   4.956  0.7705E+00  0.7633E+01
   4.966  0.7569E+00  0.7640E+01
   4.976  0.7435E+00  0.7648E+01
   4.986  0.7302E+00  0.7655E+01
   4.996  0.7171E+00  0.7662E+01
   5.006  0.7044E+00  0.7669E+01
   5.016  0.6920E+00  0.7676E+01
   5.026  0.6802E+00  0.7683E+01
   5.036  0.6688E+00  0.7689E+01
   5.046  0.6581E+00  0.7696E+01
   5.056  0.6479E+00  0.7703E+01
   5.066  0.6385E+00  0.7709E+01
   5.076  0.6296E+00  0.7715E+01
   5.086  0.6214E+00  0.7721E+01
   5.096  0.6136E+00  0.7728E+01
   5.106  0.6063E+00  0.7734E+01
   5.116  0.5994E+00  0.7740E+01
   5.126  0.5927E+00  0.7746E+01
   5.136  0.5861E+00  0.7751E+01
   5.146  0.5796E+00  0.7757E+01
   5.156  0.5729E+00  0.7763E+01
   5.166  0.5660E+00  0.7769E+01
   5.176  0.5587E+00  0.7774E+01
   5.186  0.5511E+00  0.7780E+01
   5.196  0.5431E+00  0.7785E+01
   5.206  0.5346E+00  0.7790E+01
   5.216  0.5257E+00  0.7796E+01
   5.226  0.5164E+00  0.7801E+01
   5.236  0.5067E+00  0.7806E+01
   5.246  0.4968E+00  0.7811E+01
   5.256  0.4868E+00  0.7816E+01
   5.266  0.4767E+00  0.7821E+01
   5.276  0.4666E+00  0.7825E+01
   5.286  0.4566E+00  0.7830E+01
   5.296  0.4468E+00  0.7834E+01
   5.306  0.4374E+00  0.7839E+01
   5.316  0.4282E+00  0.7843E+01
   5.326  0.4194E+00  0.7847E+01
   5.336  0.4109E+00  0.7851E+01
   5.346  0.4027E+00  0.7855E+01
   5.356  0.3949E+00  0.7859E+01
   5.366  0.3874E+00  0.7863E+01
   5.376  0.3801E+00  0.7867E+01
   5.386  0.3731E+00  0.7871E+01
   5.396  0.3662E+00  0.7874E+01
   5.406  0.3596E+00  0.7878E+01
   5.416  0.3531E+00  0.7881E+01
   5.426  0.3469E+00  0.7885E+01
   5.436  0.3408E+00  0.7888E+01
   5.446  0.3351E+00  0.7892E+01
   5.456  0.3297E+00  0.7895E+01
   5.466  0.3246E+00  0.7898E+01
   5.476  0.3200E+00  0.7901E+01
   5.486  0.3157E+00  0.7904E+01
   5.496  0.3119E+00  0.7908E+01
   5.506  0.3086E+00  0.7911E+01
   5.516  0.3056E+00  0.7914E+01
   5.526  0.3031E+00  0.7917E+01
   5.536  0.3008E+00  0.7920E+01
   5.546  0.2987E+00  0.7923E+01
   5.556  0.2967E+00  0.7926E+01
   5.566  0.2947E+00  0.7929E+01
   5.576  0.2925E+00  0.7932E+01
   5.586  0.2902E+00  0.7935E+01
   5.596  0.2874E+00  0.7937E+01
   5.606  0.2843E+00  0.7940E+01
   5.616  0.2806E+00  0.7943E+01
   5.626  0.2763E+00  0.7946E+01
   5.636  0.2714E+00  0.7949E+01
   5.646  0.2660E+00  0.7951E+01
   5.656  0.2599E+00  0.7954E+01
   5.666  0.2532E+00  0.7956E+01
   5.676  0.2461E+00  0.7959E+01
   5.686  0.2385E+00  0.7961E+01
   5.696  0.2306E+00  0.7963E+01
   5.706  0.2224E+00  0.7966E+01
   5.716  0.2140E+00  0.7968E+01
   5.726  0.2056E+00  0.7970E+01
   5.736  0.1970E+00  0.7972E+01
   5.746  0.1886E+00  0.7974E+01
   5.756  0.1802E+00  0.7976E+01
   5.766  0.1719E+00  0.7977E+01
   5.776  0.1638E+00  0.7979E+01
   5.786  0.1559E+00  0.7980E+01
   5.796  0.1482E+00  0.7982E+01
   5.806  0.1407E+00  0.7983E+01
   5.816  0.1335E+00  0.7985E+01
   5.826  0.1264E+00  0.7986E+01
   5.836  0.1195E+00  0.7987E+01
   5.846  0.1128E+00  0.7988E+01
   5.856  0.1063E+00  0.7989E+01
   5.866  0.9993E-01  0.7990E+01
   5.876  0.9371E-01  0.7991E+01
   5.886  0.8764E-01  0.7992E+01
   5.896  0.8170E-01  0.7993E+01
   5.906  0.7591E-01  0.7994E+01
   5.916  0.7027E-01  0.7994E+01
   5.926  0.6477E-01  0.7995E+01
   5.936  0.5943E-01  0.7996E+01
   5.946  0.5427E-01  0.7996E+01
   5.956  0.4930E-01  0.7997E+01
   5.966  0.4454E-01  0.7997E+01
   5.976  0.3999E-01  0.7998E+01
   5.986  0.3569E-01  0.7998E+01
   5.996  0.3164E-01  0.7998E+01
   6.006  0.2786E-01  0.7999E+01
   6.016  0.2436E-01  0.7999E+01
   6.026  0.2113E-01  0.7999E+01
   6.036  0.1820E-01  0.7999E+01
   6.046  0.1555E-01  0.7999E+01
   6.056  0.1317E-01  0.7999E+01
   6.066  0.1107E-01  0.8000E+01
   6.076  0.9225E-02  0.8000E+01
   6.086  0.7620E-02  0.8000E+01
   6.096  0.6240E-02  0.8000E+01
   6.106  0.5063E-02  0.8000E+01
   6.116  0.4072E-02  0.8000E+01
   6.126  0.3244E-02  0.8000E+01
   6.136  0.2561E-02  0.8000E+01
   6.146  0.2003E-02  0.8000E+01
   6.156  0.1553E-02  0.8000E+01
   6.166  0.1192E-02  0.8000E+01
   6.176  0.9074E-03  0.8000E+01
   6.186  0.6851E-03  0.8000E+01
   6.196  0.5139E-03  0.8000E+01
   6.206  0.3842E-03  0.8000E+01
   6.216  0.2881E-03  0.8000E+01
   6.226  0.2192E-03  0.8000E+01
   6.236  0.1726E-03  0.8000E+01
   6.246  0.1448E-03  0.8000E+01
   6.256  0.1335E-03  0.8000E+01
   6.266  0.1377E-03  0.8000E+01
   6.276  0.1575E-03  0.8000E+01
   6.286  0.1941E-03  0.8000E+01
   6.296  0.2499E-03  0.8000E+01
   6.306  0.3284E-03  0.8000E+01
   6.316  0.4344E-03  0.8000E+01
   6.326  0.5741E-03  0.8000E+01
   6.336  0.7551E-03  0.8000E+01
   6.346  0.9862E-03  0.8000E+01
   6.356  0.1278E-02  0.8000E+01
   6.366  0.1644E-02  0.8000E+01
   6.376  0.2096E-02  0.8000E+01
   6.386  0.2652E-02  0.8000E+01
   6.396  0.3328E-02  0.8000E+01
   6.406  0.4145E-02  0.8000E+01
   6.416  0.5123E-02  0.8000E+01
   6.426  0.6285E-02  0.8000E+01
   6.436  0.7655E-02  0.8000E+01
   6.446  0.9258E-02  0.8000E+01
   6.456  0.1112E-01  0.8001E+01
   6.466  0.1327E-01  0.8001E+01
   6.476  0.1572E-01  0.8001E+01
   6.486  0.1852E-01  0.8001E+01
   6.496  0.2167E-01  0.8001E+01
   6.506  0.2520E-01  0.8002E+01
   6.516  0.2913E-01  0.8002E+01
   6.526  0.3347E-01  0.8002E+01
   6.536  0.3822E-01  0.8003E+01
   6.546  0.4340E-01  0.8003E+01
   6.556  0.4900E-01  0.8003E+01
   6.566  0.5501E-01  0.8004E+01
   6.576  0.6141E-01  0.8005E+01
   6.586  0.6817E-01  0.8005E+01
   6.596  0.7528E-01  0.8006E+01
   6.606  0.8270E-01  0.8007E+01
   6.616  0.9039E-01  0.8008E+01
   6.626  0.9830E-01  0.8009E+01
   6.636  0.1064E+00  0.8010E+01
   6.646  0.1147E+00  0.8011E+01
   6.656  0.1231E+00  0.8012E+01
   6.666  0.1315E+00  0.8014E+01
   6.676  0.1401E+00  0.8015E+01
   6.686  0.1487E+00  0.8016E+01
   6.696  0.1573E+00  0.8018E+01
   6.706  0.1659E+00  0.8020E+01
   6.716  0.1745E+00  0.8021E+01
   6.726  0.1832E+00  0.8023E+01
   6.736  0.1919E+00  0.8025E+01
   6.746  0.2006E+00  0.8027E+01
   6.756  0.2094E+00  0.8029E+01
   6.766  0.2181E+00  0.8031E+01
   6.776  0.2269E+00  0.8034E+01
   6.786  0.2358E+00  0.8036E+01
   6.796  0.2447E+00  0.8039E+01
   6.806  0.2536E+00  0.8041E+01
   6.816  0.2625E+00  0.8044E+01
   6.826  0.2714E+00  0.8046E+01
   6.836  0.2803E+00  0.8049E+01
   6.846  0.2893E+00  0.8052E+01
   6.856  0.2982E+00  0.8055E+01
   6.866  0.3071E+00  0.8058E+01
   6.876  0.3159E+00  0.8061E+01
   6.886  0.3248E+00  0.8065E+01
   6.896  0.3336E+00  0.8068E+01
   6.906  0.3424E+00  0.8071E+01
   6.916  0.3512E+00  0.8075E+01
   6.926  0.3599E+00  0.8078E+01
   6.936  0.3686E+00  0.8082E+01
   6.946  0.3772E+00  0.8086E+01
   6.956  0.3856E+00  0.8090E+01
   6.966  0.3940E+00  0.8094E+01
   6.976  0.4022E+00  0.8098E+01
   6.986  0.4101E+00  0.8102E+01
   6.996  0.4179E+00  0.8106E+01
   7.006  0.4253E+00  0.8110E+01
   7.016  0.4324E+00  0.8115E+01
   7.026  0.4392E+00  0.8119E+01
   7.036  0.4455E+00  0.8123E+01
   7.046  0.4513E+00  0.8128E+01
   7.056  0.4568E+00  0.8132E+01
   7.066  0.4617E+00  0.8137E+01
   7.076  0.4661E+00  0.8142E+01
   7.086  0.4700E+00  0.8146E+01
   7.096  0.4735E+00  0.8151E+01
   7.106  0.4765E+00  0.8156E+01
   7.116  0.4791E+00  0.8161E+01
   7.126  0.4812E+00  0.8166E+01
   7.136  0.4830E+00  0.8170E+01
   7.146  0.4845E+00  0.8175E+01
   7.156  0.4858E+00  0.8180E+01
   7.166  0.4868E+00  0.8185E+01
   7.176  0.4877E+00  0.8190E+01
   7.186  0.4884E+00  0.8195E+01
   7.196  0.4892E+00  0.8200E+01
   7.206  0.4900E+00  0.8204E+01
   7.216  0.4909E+00  0.8209E+01
   7.226  0.4920E+00  0.8214E+01
   7.236  0.4935E+00  0.8219E+01
   7.246  0.4953E+00  0.8224E+01
   7.256  0.4977E+00  0.8229E+01
   7.266  0.5008E+00  0.8234E+01
   7.276  0.5047E+00  0.8239E+01
   7.286  0.5094E+00  0.8244E+01
   7.296  0.5151E+00  0.8249E+01
   7.306  0.5220E+00  0.8255E+01
   7.316  0.5299E+00  0.8260E+01
   7.326  0.5390E+00  0.8265E+01
   7.336  0.5493E+00  0.8271E+01
   7.346  0.5607E+00  0.8277E+01
   7.356  0.5731E+00  0.8282E+01
   7.366  0.5865E+00  0.8288E+01
   7.376  0.6005E+00  0.8294E+01
   7.386  0.6152E+00  0.8300E+01
   7.396  0.6303E+00  0.8307E+01
   7.406  0.6456E+00  0.8313E+01
   7.416  0.6609E+00  0.8320E+01
   7.426  0.6760E+00  0.8326E+01
   7.436  0.6908E+00  0.8333E+01
   7.446  0.7051E+00  0.8340E+01
   7.456  0.7188E+00  0.8348E+01
   7.466  0.7320E+00  0.8355E+01
   7.476  0.7445E+00  0.8362E+01
   7.486  0.7565E+00  0.8370E+01
   7.496  0.7679E+00  0.8378E+01
   7.506  0.7790E+00  0.8385E+01
   7.516  0.7899E+00  0.8393E+01
   7.526  0.8006E+00  0.8401E+01
   7.536  0.8114E+00  0.8409E+01
   7.546  0.8223E+00  0.8418E+01
   7.556  0.8336E+00  0.8426E+01
   7.566  0.8453E+00  0.8434E+01
   7.576  0.8575E+00  0.8443E+01
   7.586  0.8702E+00  0.8452E+01
   7.596  0.8833E+00  0.8460E+01
   7.606  0.8969E+00  0.8469E+01
   7.616  0.9107E+00  0.8479E+01
   7.626  0.9247E+00  0.8488E+01
   7.636  0.9386E+00  0.8497E+01
   7.646  0.9522E+00  0.8507E+01
   7.656  0.9654E+00  0.8516E+01
   7.666  0.9779E+00  0.8526E+01
   7.676  0.9894E+00  0.8536E+01
   7.686  0.9998E+00  0.8546E+01
   7.696  0.1009E+01  0.8556E+01
   7.706  0.1017E+01  0.8566E+01
   7.716  0.1023E+01  0.8577E+01
   7.726  0.1027E+01  0.8587E+01
   7.736  0.1030E+01  0.8597E+01
   7.746  0.1032E+01  0.8607E+01
   7.756  0.1032E+01  0.8618E+01
   7.766  0.1031E+01  0.8628E+01
   7.776  0.1029E+01  0.8638E+01
   7.786  0.1026E+01  0.8649E+01
   7.796  0.1023E+01  0.8659E+01
   7.806  0.1020E+01  0.8669E+01
   7.816  0.1018E+01  0.8679E+01
   7.826  0.1016E+01  0.8689E+01
   7.836  0.1016E+01  0.8699E+01
   7.846  0.1017E+01  0.8710E+01
   7.856  0.1021E+01  0.8720E+01
   7.866  0.1027E+01  0.8730E+01
   7.876  0.1036E+01  0.8740E+01
   7.886  0.1047E+01  0.8751E+01
   7.896  0.1062E+01  0.8762E+01
   7.906  0.1079E+01  0.8772E+01
   7.916  0.1099E+01  0.8783E+01
   7.926  0.1122E+01  0.8795E+01
   7.936  0.1148E+01  0.8806E+01
   7.946  0.1175E+01  0.8818E+01
   7.956  0.1203E+01  0.8830E+01
   7.966  0.1233E+01  0.8842E+01
   7.976  0.1263E+01  0.8855E+01
   7.986  0.1293E+01  0.8868E+01
   7.996  0.1321E+01  0.8881E+01
   8.006  0.1349E+01  0.8894E+01
   8.016  0.1375E+01  0.8908E+01
   8.026  0.1399E+01  0.8922E+01
   8.036  0.1421E+01  0.8936E+01
   8.046  0.1440E+01  0.8951E+01
   8.056  0.1457E+01  0.8965E+01
   8.066  0.1471E+01  0.8980E+01
   8.076  0.1483E+01  0.8995E+01
   8.086  0.1492E+01  0.9010E+01
   8.096  0.1500E+01  0.9025E+01
   8.106  0.1506E+01  0.9040E+01
   8.116  0.1512E+01  0.9055E+01
   8.126  0.1516E+01  0.9070E+01
   8.136  0.1520E+01  0.9085E+01
   8.146  0.1525E+01  0.9101E+01
   8.156  0.1529E+01  0.9116E+01
   8.166  0.1535E+01  0.9131E+01
   8.176  0.1541E+01  0.9147E+01
   8.186  0.1548E+01  0.9162E+01
   8.196  0.1557E+01  0.9178E+01
   8.206  0.1566E+01  0.9193E+01
   8.216  0.1576E+01  0.9209E+01
   8.226  0.1586E+01  0.9225E+01
   8.236  0.1597E+01  0.9241E+01
   8.246  0.1607E+01  0.9257E+01
   8.256  0.1617E+01  0.9273E+01
   8.266  0.1625E+01  0.9289E+01
   8.276  0.1633E+01  0.9306E+01
   8.286  0.1638E+01  0.9322E+01
   8.296  0.1641E+01  0.9339E+01
   8.306  0.1642E+01  0.9355E+01
   8.316  0.1641E+01  0.9371E+01
   8.326  0.1636E+01  0.9388E+01
   8.336  0.1630E+01  0.9404E+01
   8.346  0.1621E+01  0.9420E+01
   8.356  0.1610E+01  0.9436E+01
   8.366  0.1597E+01  0.9452E+01
   8.376  0.1583E+01  0.9468E+01
   8.386  0.1567E+01  0.9484E+01
   8.396  0.1551E+01  0.9499E+01
   8.406  0.1534E+01  0.9515E+01
   8.416  0.1518E+01  0.9530E+01
   8.426  0.1501E+01  0.9545E+01
   8.436  0.1485E+01  0.9560E+01
   8.446  0.1470E+01  0.9574E+01
   8.456  0.1456E+01  0.9589E+01
   8.466  0.1443E+01  0.9603E+01
   8.476  0.1432E+01  0.9618E+01
   8.486  0.1421E+01  0.9632E+01
   8.496  0.1411E+01  0.9646E+01
   8.506  0.1402E+01  0.9660E+01
   8.516  0.1394E+01  0.9674E+01
   8.526  0.1387E+01  0.9688E+01
   8.536  0.1380E+01  0.9702E+01
   8.546  0.1373E+01  0.9715E+01
   8.556  0.1366E+01  0.9729E+01
   8.566  0.1359E+01  0.9743E+01
   8.576  0.1351E+01  0.9756E+01
   8.586  0.1344E+01  0.9770E+01
   8.596  0.1335E+01  0.9783E+01
   8.606  0.1326E+01  0.9796E+01
   8.616  0.1316E+01  0.9809E+01
   8.626  0.1306E+01  0.9822E+01
   8.636  0.1295E+01  0.9835E+01
   8.646  0.1283E+01  0.9848E+01
   8.656  0.1270E+01  0.9861E+01
   8.666  0.1257E+01  0.9874E+01
   8.676  0.1244E+01  0.9886E+01
   8.686  0.1230E+01  0.9898E+01
   8.696  0.1216E+01  0.9910E+01
   8.706  0.1201E+01  0.9922E+01
   8.716  0.1186E+01  0.9934E+01
   8.726  0.1171E+01  0.9946E+01
   8.736  0.1155E+01  0.9958E+01
   8.746  0.1140E+01  0.9969E+01
   8.756  0.1124E+01  0.9980E+01
   8.766  0.1108E+01  0.9991E+01
   8.776  0.1092E+01  0.1000E+02
   8.786  0.1075E+01  0.1001E+02
   8.796  0.1059E+01  0.1002E+02
   8.806  0.1043E+01  0.1003E+02
   8.816  0.1027E+01  0.1004E+02
   8.826  0.1011E+01  0.1005E+02
   8.836  0.9960E+00  0.1006E+02
   8.846  0.9819E+00  0.1007E+02
   8.856  0.9691E+00  0.1008E+02
   8.866  0.9577E+00  0.1009E+02
   8.876  0.9480E+00  0.1010E+02
   8.886  0.9405E+00  0.1011E+02
   8.896  0.9353E+00  0.1012E+02
   8.906  0.9328E+00  0.1013E+02
   8.916  0.9331E+00  0.1014E+02
   8.926  0.9365E+00  0.1015E+02
   8.936  0.9431E+00  0.1016E+02
   8.946  0.9530E+00  0.1017E+02
   8.956  0.9663E+00  0.1018E+02
   8.966  0.9830E+00  0.1019E+02
   8.976  0.1003E+01  0.1020E+02
   8.986  0.1026E+01  0.1021E+02
   8.996  0.1053E+01  0.1022E+02
   9.006  0.1083E+01  0.1023E+02
   9.016  0.1116E+01  0.1024E+02
   9.026  0.1151E+01  0.1025E+02
   9.036  0.1190E+01  0.1026E+02
   9.046  0.1231E+01  0.1028E+02
   9.056  0.1275E+01  0.1029E+02
   9.066  0.1321E+01  0.1030E+02
   9.076  0.1369E+01  0.1032E+02
   9.086  0.1420E+01  0.1033E+02
   9.096  0.1473E+01  0.1035E+02
   9.106  0.1528E+01  0.1036E+02
   9.116  0.1585E+01  0.1038E+02
   9.126  0.1643E+01  0.1039E+02
   9.136  0.1702E+01  0.1041E+02
   9.146  0.1761E+01  0.1043E+02
   9.156  0.1820E+01  0.1045E+02
   9.166  0.1878E+01  0.1046E+02
   9.176  0.1935E+01  0.1048E+02
   9.186  0.1989E+01  0.1050E+02
   9.196  0.2040E+01  0.1052E+02
   9.206  0.2088E+01  0.1054E+02
   9.216  0.2130E+01  0.1057E+02
   9.226  0.2167E+01  0.1059E+02
   9.236  0.2198E+01  0.1061E+02
   9.246  0.2222E+01  0.1063E+02
   9.256  0.2239E+01  0.1065E+02
   9.266  0.2249E+01  0.1068E+02
   9.276  0.2252E+01  0.1070E+02
   9.286  0.2248E+01  0.1072E+02
   9.296  0.2238E+01  0.1074E+02
   9.306  0.2222E+01  0.1077E+02
   9.316  0.2200E+01  0.1079E+02
   9.326  0.2174E+01  0.1081E+02
   9.336  0.2144E+01  0.1083E+02
   9.346  0.2112E+01  0.1085E+02
   9.356  0.2078E+01  0.1087E+02
   9.366  0.2043E+01  0.1089E+02
   9.376  0.2009E+01  0.1091E+02
   9.386  0.1975E+01  0.1093E+02
   9.396  0.1942E+01  0.1095E+02
   9.406  0.1912E+01  0.1097E+02
   9.416  0.1884E+01  0.1099E+02
   9.426  0.1858E+01  0.1101E+02
   9.436  0.1836E+01  0.1103E+02
   9.446  0.1816E+01  0.1105E+02
   9.456  0.1799E+01  0.1106E+02
   9.466  0.1785E+01  0.1108E+02
   9.476  0.1773E+01  0.1110E+02
   9.486  0.1763E+01  0.1112E+02
   9.496  0.1755E+01  0.1114E+02
   9.506  0.1748E+01  0.1115E+02
   9.516  0.1742E+01  0.1117E+02
   9.526  0.1737E+01  0.1119E+02
   9.536  0.1731E+01  0.1120E+02
   9.546  0.1726E+01  0.1122E+02
   9.556  0.1721E+01  0.1124E+02
   9.566  0.1715E+01  0.1126E+02
   9.576  0.1709E+01  0.1127E+02
   9.586  0.1703E+01  0.1129E+02
   9.596  0.1696E+01  0.1131E+02
   9.606  0.1688E+01  0.1132E+02
   9.616  0.1681E+01  0.1134E+02
   9.626  0.1673E+01  0.1136E+02
   9.636  0.1665E+01  0.1137E+02
   9.646  0.1656E+01  0.1139E+02
   9.656  0.1647E+01  0.1141E+02
   9.666  0.1638E+01  0.1142E+02
   9.676  0.1629E+01  0.1144E+02
   9.686  0.1620E+01  0.1146E+02
   9.696  0.1610E+01  0.1147E+02
   9.706  0.1600E+01  0.1149E+02
   9.716  0.1590E+01  0.1150E+02
   9.726  0.1579E+01  0.1152E+02
   9.736  0.1567E+01  0.1154E+02
   9.746  0.1555E+01  0.1155E+02
   9.756  0.1542E+01  0.1157E+02
   9.766  0.1529E+01  0.1158E+02
   9.776  0.1514E+01  0.1160E+02
   9.786  0.1499E+01  0.1161E+02
   9.796  0.1482E+01  0.1163E+02
   9.806  0.1465E+01  0.1164E+02
   9.816  0.1447E+01  0.1166E+02
   9.826  0.1427E+01  0.1167E+02
   9.836  0.1407E+01  0.1168E+02
   9.846  0.1386E+01  0.1170E+02
   9.856  0.1365E+01  0.1171E+02
   9.866  0.1343E+01  0.1173E+02
   9.876  0.1321E+01  0.1174E+02
   9.886  0.1299E+01  0.1175E+02
   9.896  0.1278E+01  0.1176E+02
   9.906  0.1258E+01  0.1178E+02
   9.916  0.1239E+01  0.1179E+02
   9.926  0.1222E+01  0.1180E+02
   9.936  0.1208E+01  0.1181E+02
   9.946  0.1196E+01  0.1183E+02
   9.956  0.1186E+01  0.1184E+02
   9.966  0.1180E+01  0.1185E+02
   9.976  0.1178E+01  0.1186E+02
   9.986  0.1179E+01  0.1187E+02
   9.996  0.1183E+01  0.1188E+02
  10.006  0.1190E+01  0.1190E+02
  10.016  0.1201E+01  0.1191E+02
  10.026  0.1215E+01  0.1192E+02
  10.036  0.1232E+01  0.1193E+02
  10.046  0.1250E+01  0.1195E+02
  10.056  0.1270E+01  0.1196E+02
  10.066  0.1292E+01  0.1197E+02
  10.076  0.1314E+01  0.1198E+02
  10.086  0.1336E+01  0.1200E+02
  10.096  0.1358E+01  0.1201E+02
  10.106  0.1378E+01  0.1203E+02
  10.116  0.1397E+01  0.1204E+02
  10.126  0.1413E+01  0.1205E+02
  10.136  0.1428E+01  0.1207E+02
  10.146  0.1439E+01  0.1208E+02
  10.156  0.1447E+01  0.1210E+02
  10.166  0.1451E+01  0.1211E+02
  10.176  0.1453E+01  0.1213E+02
  10.186  0.1451E+01  0.1214E+02
  10.196  0.1445E+01  0.1215E+02
  10.206  0.1437E+01  0.1217E+02
  10.216  0.1426E+01  0.1218E+02
  10.226  0.1413E+01  0.1220E+02
  10.236  0.1398E+01  0.1221E+02
  10.246  0.1382E+01  0.1222E+02
  10.256  0.1365E+01  0.1224E+02
  10.266  0.1348E+01  0.1225E+02
  10.276  0.1331E+01  0.1227E+02
  10.286  0.1315E+01  0.1228E+02
  10.296  0.1301E+01  0.1229E+02
  10.306  0.1288E+01  0.1230E+02
  10.316  0.1277E+01  0.1232E+02
  10.326  0.1267E+01  0.1233E+02
  10.336  0.1261E+01  0.1234E+02
  10.346  0.1256E+01  0.1235E+02
  10.356  0.1253E+01  0.1237E+02
  10.366  0.1253E+01  0.1238E+02
  10.376  0.1254E+01  0.1239E+02
  10.386  0.1257E+01  0.1241E+02
  10.396  0.1261E+01  0.1242E+02
  10.406  0.1266E+01  0.1243E+02
  10.416  0.1271E+01  0.1244E+02
  10.426  0.1277E+01  0.1246E+02
  10.436  0.1282E+01  0.1247E+02
  10.446  0.1287E+01  0.1248E+02
  10.456  0.1291E+01  0.1249E+02
  10.466  0.1294E+01  0.1251E+02
  10.476  0.1295E+01  0.1252E+02
  10.486  0.1296E+01  0.1253E+02
  10.496  0.1295E+01  0.1255E+02
  10.506  0.1294E+01  0.1256E+02
  10.516  0.1291E+01  0.1257E+02
  10.526  0.1287E+01  0.1259E+02
  10.536  0.1283E+01  0.1260E+02
  10.546  0.1278E+01  0.1261E+02
  10.556  0.1273E+01  0.1262E+02
  10.566  0.1268E+01  0.1264E+02
  10.576  0.1262E+01  0.1265E+02
  10.586  0.1257E+01  0.1266E+02
  10.596  0.1253E+01  0.1267E+02
  10.606  0.1249E+01  0.1269E+02
  10.616  0.1246E+01  0.1270E+02
  10.626  0.1243E+01  0.1271E+02
  10.636  0.1241E+01  0.1272E+02
  10.646  0.1240E+01  0.1274E+02
  10.656  0.1239E+01  0.1275E+02
  10.666  0.1239E+01  0.1276E+02
  10.676  0.1239E+01  0.1277E+02
  10.686  0.1240E+01  0.1279E+02
  10.696  0.1240E+01  0.1280E+02
  10.706  0.1242E+01  0.1281E+02
  10.716  0.1243E+01  0.1282E+02
  10.726  0.1245E+01  0.1284E+02
  10.736  0.1246E+01  0.1285E+02
  10.746  0.1248E+01  0.1286E+02
  10.756  0.1251E+01  0.1287E+02
  10.766  0.1253E+01  0.1289E+02
  10.776  0.1256E+01  0.1290E+02
  10.786  0.1260E+01  0.1291E+02
  10.796  0.1264E+01  0.1292E+02
  10.806  0.1268E+01  0.1294E+02
  10.816  0.1273E+01  0.1295E+02
  10.826  0.1279E+01  0.1296E+02
  10.836  0.1285E+01  0.1297E+02
  10.846  0.1291E+01  0.1299E+02
  10.856  0.1298E+01  0.1300E+02
  10.866  0.1305E+01  0.1301E+02
  10.876  0.1313E+01  0.1303E+02
  10.886  0.1320E+01  0.1304E+02
  10.896  0.1328E+01  0.1305E+02
  10.906  0.1335E+01  0.1307E+02
  10.916  0.1342E+01  0.1308E+02
  10.926  0.1349E+01  0.1309E+02
  10.936  0.1355E+01  0.1311E+02
  10.946  0.1360E+01  0.1312E+02
  10.956  0.1365E+01  0.1313E+02
  10.966  0.1369E+01  0.1315E+02
  10.976  0.1372E+01  0.1316E+02
  10.986  0.1374E+01  0.1317E+02
  10.996  0.1374E+01  0.1319E+02
  11.006  0.1373E+01  0.1320E+02
  11.016  0.1370E+01  0.1322E+02
  11.026  0.1365E+01  0.1323E+02
  11.036  0.1358E+01  0.1324E+02
  11.046  0.1350E+01  0.1326E+02
  11.056  0.1340E+01  0.1327E+02
  11.066  0.1328E+01  0.1328E+02
  11.076  0.1314E+01  0.1330E+02
  11.086  0.1299E+01  0.1331E+02
  11.096  0.1282E+01  0.1332E+02
  11.106  0.1264E+01  0.1333E+02
  11.116  0.1245E+01  0.1335E+02
  11.126  0.1225E+01  0.1336E+02
  11.136  0.1206E+01  0.1337E+02
  11.146  0.1186E+01  0.1338E+02
  11.156  0.1167E+01  0.1340E+02
  11.166  0.1148E+01  0.1341E+02
  11.176  0.1131E+01  0.1342E+02
  11.186  0.1114E+01  0.1343E+02
  11.196  0.1099E+01  0.1344E+02
  11.206  0.1086E+01  0.1345E+02
  11.216  0.1074E+01  0.1346E+02
  11.226  0.1064E+01  0.1347E+02
  11.236  0.1056E+01  0.1348E+02
  11.246  0.1050E+01  0.1349E+02
  11.256  0.1045E+01  0.1350E+02
  11.266  0.1041E+01  0.1351E+02
  11.276  0.1039E+01  0.1352E+02
  11.286  0.1038E+01  0.1354E+02
  11.296  0.1037E+01  0.1355E+02
  11.306  0.1037E+01  0.1356E+02
  11.316  0.1037E+01  0.1357E+02
  11.326  0.1038E+01  0.1358E+02
  11.336  0.1038E+01  0.1359E+02
  11.346  0.1037E+01  0.1360E+02
  11.356  0.1037E+01  0.1361E+02
  11.366  0.1036E+01  0.1362E+02
  11.376  0.1035E+01  0.1363E+02
  11.386  0.1034E+01  0.1364E+02
  11.396  0.1033E+01  0.1365E+02
  11.406  0.1032E+01  0.1366E+02
  11.416  0.1033E+01  0.1367E+02
  11.426  0.1034E+01  0.1368E+02
  11.436  0.1036E+01  0.1369E+02
  11.446  0.1040E+01  0.1370E+02
  11.456  0.1046E+01  0.1371E+02
  11.466  0.1054E+01  0.1372E+02
  11.476  0.1064E+01  0.1373E+02
  11.486  0.1076E+01  0.1374E+02
  11.496  0.1089E+01  0.1375E+02
  11.506  0.1104E+01  0.1377E+02
  11.516  0.1120E+01  0.1378E+02
  11.526  0.1137E+01  0.1379E+02
  11.536  0.1155E+01  0.1380E+02
  11.546  0.1172E+01  0.1381E+02
  11.556  0.1189E+01  0.1382E+02
  11.566  0.1204E+01  0.1383E+02
  11.576  0.1218E+01  0.1385E+02
  11.586  0.1231E+01  0.1386E+02
  11.596  0.1241E+01  0.1387E+02
  11.606  0.1250E+01  0.1388E+02
  11.616  0.1256E+01  0.1390E+02
  11.626  0.1261E+01  0.1391E+02
  11.636  0.1264E+01  0.1392E+02
  11.646  0.1265E+01  0.1393E+02
  11.656  0.1266E+01  0.1395E+02
  11.666  0.1265E+01  0.1396E+02
  11.676  0.1265E+01  0.1397E+02
  11.686  0.1264E+01  0.1399E+02
  11.696  0.1264E+01  0.1400E+02
  11.706  0.1263E+01  0.1401E+02
  11.716  0.1264E+01  0.1402E+02
  11.726  0.1264E+01  0.1404E+02
  11.736  0.1266E+01  0.1405E+02
  11.746  0.1267E+01  0.1406E+02
  11.756  0.1269E+01  0.1407E+02
  11.766  0.1271E+01  0.1409E+02
  11.776  0.1272E+01  0.1410E+02
  11.786  0.1273E+01  0.1411E+02
  11.796  0.1273E+01  0.1412E+02
  11.806  0.1271E+01  0.1414E+02
  11.816  0.1269E+01  0.1415E+02
  11.826  0.1264E+01  0.1416E+02
  11.836  0.1259E+01  0.1418E+02
  11.846  0.1251E+01  0.1419E+02
  11.856  0.1241E+01  0.1420E+02
  11.866  0.1229E+01  0.1421E+02
  11.876  0.1216E+01  0.1422E+02
  11.886  0.1200E+01  0.1424E+02
  11.896  0.1183E+01  0.1425E+02
  11.906  0.1163E+01  0.1426E+02
  11.916  0.1143E+01  0.1427E+02
  11.926  0.1120E+01  0.1428E+02
  11.936  0.1097E+01  0.1429E+02
  11.946  0.1072E+01  0.1430E+02
  11.956  0.1047E+01  0.1432E+02
  11.966  0.1021E+01  0.1433E+02
  11.976  0.9945E+00  0.1434E+02
  11.986  0.9681E+00  0.1434E+02
  11.996  0.9421E+00  0.1435E+02
  12.006  0.9165E+00  0.1436E+02
  12.016  0.8918E+00  0.1437E+02
  12.026  0.8682E+00  0.1438E+02
  12.036  0.8460E+00  0.1439E+02
  12.046  0.8254E+00  0.1440E+02
  12.056  0.8067E+00  0.1441E+02
  12.066  0.7900E+00  0.1441E+02
  12.076  0.7755E+00  0.1442E+02
  12.086  0.7634E+00  0.1443E+02
  12.096  0.7536E+00  0.1444E+02
  12.106  0.7464E+00  0.1444E+02
  12.116  0.7417E+00  0.1445E+02
  12.126  0.7395E+00  0.1446E+02
  12.136  0.7397E+00  0.1447E+02
  12.146  0.7424E+00  0.1447E+02
  12.156  0.7474E+00  0.1448E+02
  12.166  0.7545E+00  0.1449E+02
  12.176  0.7637E+00  0.1450E+02
  12.186  0.7747E+00  0.1450E+02
  12.196  0.7873E+00  0.1451E+02
  12.206  0.8013E+00  0.1452E+02
  12.216  0.8165E+00  0.1453E+02
  12.226  0.8328E+00  0.1454E+02
  12.236  0.8498E+00  0.1455E+02
  12.246  0.8674E+00  0.1455E+02
  12.256  0.8855E+00  0.1456E+02
  12.266  0.9038E+00  0.1457E+02
  12.276  0.9224E+00  0.1458E+02
  12.286  0.9411E+00  0.1459E+02
  12.296  0.9598E+00  0.1460E+02
  12.306  0.9786E+00  0.1461E+02
  12.316  0.9975E+00  0.1462E+02
  12.326  0.1016E+01  0.1463E+02
  12.336  0.1036E+01  0.1464E+02
  12.346  0.1055E+01  0.1465E+02
  12.356  0.1075E+01  0.1466E+02
  12.366  0.1095E+01  0.1467E+02
  12.376  0.1116E+01  0.1468E+02
  12.386  0.1137E+01  0.1469E+02
  12.396  0.1158E+01  0.1471E+02
  12.406  0.1180E+01  0.1472E+02
  12.416  0.1203E+01  0.1473E+02
  12.426  0.1226E+01  0.1474E+02
  12.436  0.1249E+01  0.1476E+02
  12.446  0.1272E+01  0.1477E+02
  12.456  0.1295E+01  0.1478E+02
  12.466  0.1319E+01  0.1479E+02
  12.476  0.1341E+01  0.1481E+02
  12.486  0.1364E+01  0.1482E+02
  12.496  0.1386E+01  0.1483E+02
  12.506  0.1407E+01  0.1485E+02
  12.516  0.1427E+01  0.1486E+02
  12.526  0.1447E+01  0.1488E+02
  12.536  0.1465E+01  0.1489E+02
  12.546  0.1483E+01  0.1491E+02
  12.556  0.1500E+01  0.1492E+02
  12.566  0.1516E+01  0.1494E+02
  12.576  0.1532E+01  0.1495E+02
  12.586  0.1547E+01  0.1497E+02
  12.596  0.1561E+01  0.1498E+02
  12.606  0.1574E+01  0.1500E+02
  12.616  0.1587E+01  0.1502E+02
  12.626  0.1599E+01  0.1503E+02
  12.636  0.1609E+01  0.1505E+02
  12.646  0.1619E+01  0.1506E+02
  12.656  0.1627E+01  0.1508E+02
  12.666  0.1634E+01  0.1510E+02
  12.676  0.1638E+01  0.1511E+02
  12.686  0.1640E+01  0.1513E+02
  12.696  0.1639E+01  0.1515E+02
  12.706  0.1635E+01  0.1516E+02
  12.716  0.1627E+01  0.1518E+02
  12.726  0.1615E+01  0.1519E+02
  12.736  0.1600E+01  0.1521E+02
  12.746  0.1580E+01  0.1523E+02
  12.756  0.1557E+01  0.1524E+02
  12.766  0.1529E+01  0.1526E+02
  12.776  0.1498E+01  0.1527E+02
  12.786  0.1463E+01  0.1529E+02
  12.796  0.1426E+01  0.1530E+02
  12.806  0.1385E+01  0.1531E+02
  12.816  0.1343E+01  0.1533E+02
  12.826  0.1299E+01  0.1534E+02
  12.836  0.1254E+01  0.1535E+02
  12.846  0.1209E+01  0.1537E+02
  12.856  0.1165E+01  0.1538E+02
  12.866  0.1122E+01  0.1539E+02
  12.876  0.1080E+01  0.1540E+02
  12.886  0.1040E+01  0.1541E+02
  12.896  0.1004E+01  0.1542E+02
  12.906  0.9699E+00  0.1543E+02
  12.916  0.9395E+00  0.1544E+02
  12.926  0.9128E+00  0.1545E+02
  12.936  0.8897E+00  0.1546E+02
  12.946  0.8703E+00  0.1547E+02
  12.956  0.8546E+00  0.1547E+02
  12.966  0.8422E+00  0.1548E+02
  12.976  0.8329E+00  0.1549E+02
  12.986  0.8265E+00  0.1550E+02
  12.996  0.8226E+00  0.1551E+02
  13.006  0.8207E+00  0.1552E+02
  13.016  0.8206E+00  0.1552E+02
  13.026  0.8217E+00  0.1553E+02
  13.036  0.8236E+00  0.1554E+02
  13.046  0.8261E+00  0.1555E+02
  13.056  0.8289E+00  0.1556E+02
  13.066  0.8315E+00  0.1557E+02
  13.076  0.8339E+00  0.1557E+02
  13.086  0.8359E+00  0.1558E+02
  13.096  0.8374E+00  0.1559E+02
  13.106  0.8384E+00  0.1560E+02
  13.116  0.8388E+00  0.1561E+02
  13.126  0.8388E+00  0.1562E+02
  13.136  0.8386E+00  0.1562E+02
  13.146  0.8381E+00  0.1563E+02
  13.156  0.8378E+00  0.1564E+02
  13.166  0.8378E+00  0.1565E+02
  13.176  0.8383E+00  0.1566E+02
  13.186  0.8398E+00  0.1567E+02
  13.196  0.8424E+00  0.1567E+02
  13.206  0.8464E+00  0.1568E+02
  13.216  0.8522E+00  0.1569E+02
  13.226  0.8599E+00  0.1570E+02
  13.236  0.8699E+00  0.1571E+02
  13.246  0.8822E+00  0.1572E+02
  13.256  0.8971E+00  0.1573E+02
  13.266  0.9147E+00  0.1574E+02
  13.276  0.9349E+00  0.1574E+02
  13.286  0.9578E+00  0.1575E+02
  13.296  0.9832E+00  0.1576E+02
  13.306  0.1011E+01  0.1577E+02
  13.316  0.1041E+01  0.1578E+02
  13.326  0.1072E+01  0.1580E+02
  13.336  0.1106E+01  0.1581E+02
  13.346  0.1140E+01  0.1582E+02
  13.356  0.1175E+01  0.1583E+02
  13.366  0.1210E+01  0.1584E+02
  13.376  0.1245E+01  0.1585E+02
  13.386  0.1279E+01  0.1587E+02
  13.396  0.1313E+01  0.1588E+02
  13.406  0.1345E+01  0.1589E+02
  13.416  0.1376E+01  0.1591E+02
  13.426  0.1405E+01  0.1592E+02
  13.436  0.1433E+01  0.1594E+02
  13.446  0.1459E+01  0.1595E+02
  13.456  0.1484E+01  0.1596E+02
  13.466  0.1508E+01  0.1598E+02
  13.476  0.1530E+01  0.1600E+02
  13.486  0.1552E+01  0.1601E+02
  13.496  0.1573E+01  0.1603E+02
  13.506  0.1594E+01  0.1604E+02
  13.516  0.1615E+01  0.1606E+02
  13.526  0.1635E+01  0.1607E+02
  13.536  0.1656E+01  0.1609E+02
  13.546  0.1676E+01  0.1611E+02
  13.556  0.1697E+01  0.1613E+02
  13.566  0.1717E+01  0.1614E+02
  13.576  0.1736E+01  0.1616E+02
  13.586  0.1753E+01  0.1618E+02
  13.596  0.1770E+01  0.1620E+02
  13.606  0.1784E+01  0.1621E+02
  13.616  0.1795E+01  0.1623E+02
  13.626  0.1804E+01  0.1625E+02
  13.636  0.1809E+01  0.1627E+02
  13.646  0.1810E+01  0.1629E+02
  13.656  0.1807E+01  0.1630E+02
  13.666  0.1799E+01  0.1632E+02
  13.676  0.1788E+01  0.1634E+02
  13.686  0.1772E+01  0.1636E+02
  13.696  0.1752E+01  0.1637E+02
  13.706  0.1727E+01  0.1639E+02
  13.716  0.1700E+01  0.1641E+02
  13.726  0.1669E+01  0.1643E+02
  13.736  0.1635E+01  0.1644E+02
  13.746  0.1598E+01  0.1646E+02
  13.756  0.1560E+01  0.1647E+02
  13.766  0.1520E+01  0.1649E+02
  13.776  0.1480E+01  0.1650E+02
  13.786  0.1439E+01  0.1652E+02
  13.796  0.1397E+01  0.1653E+02
  13.806  0.1356E+01  0.1654E+02
  13.816  0.1316E+01  0.1656E+02
  13.826  0.1276E+01  0.1657E+02
  13.836  0.1238E+01  0.1658E+02
  13.846  0.1201E+01  0.1660E+02
  13.856  0.1165E+01  0.1661E+02
  13.866  0.1130E+01  0.1662E+02
  13.876  0.1097E+01  0.1663E+02
  13.886  0.1065E+01  0.1664E+02
  13.896  0.1034E+01  0.1665E+02
  13.906  0.1005E+01  0.1666E+02
  13.916  0.9767E+00  0.1667E+02
  13.926  0.9502E+00  0.1668E+02
  13.936  0.9252E+00  0.1669E+02
  13.946  0.9017E+00  0.1670E+02
  13.956  0.8799E+00  0.1671E+02
  13.966  0.8599E+00  0.1672E+02
  13.976  0.8418E+00  0.1672E+02
  13.986  0.8258E+00  0.1673E+02
  13.996  0.8121E+00  0.1674E+02
  14.006  0.8008E+00  0.1675E+02
  14.016  0.7920E+00  0.1676E+02
  14.026  0.7858E+00  0.1676E+02
  14.036  0.7822E+00  0.1677E+02
  14.046  0.7813E+00  0.1678E+02
  14.056  0.7831E+00  0.1679E+02
  14.066  0.7874E+00  0.1680E+02
  14.076  0.7940E+00  0.1680E+02
  14.086  0.8029E+00  0.1681E+02
  14.096  0.8138E+00  0.1682E+02
  14.106  0.8264E+00  0.1683E+02
  14.116  0.8404E+00  0.1684E+02
  14.126  0.8556E+00  0.1684E+02
  14.136  0.8715E+00  0.1685E+02
  14.146  0.8880E+00  0.1686E+02
  14.156  0.9045E+00  0.1687E+02
  14.166  0.9209E+00  0.1688E+02
  14.176  0.9368E+00  0.1689E+02
  14.186  0.9519E+00  0.1690E+02
  14.196  0.9660E+00  0.1691E+02
  14.206  0.9790E+00  0.1692E+02
  14.216  0.9906E+00  0.1693E+02
  14.226  0.1001E+01  0.1694E+02
  14.236  0.1010E+01  0.1695E+02
  14.246  0.1017E+01  0.1696E+02
  14.256  0.1024E+01  0.1697E+02
  14.266  0.1030E+01  0.1698E+02
  14.276  0.1035E+01  0.1699E+02
  14.286  0.1040E+01  0.1700E+02
  14.296  0.1045E+01  0.1701E+02
  14.306  0.1051E+01  0.1702E+02
  14.316  0.1057E+01  0.1703E+02
  14.326  0.1066E+01  0.1704E+02
  14.336  0.1077E+01  0.1705E+02
  14.346  0.1090E+01  0.1706E+02
  14.356  0.1106E+01  0.1707E+02
  14.366  0.1125E+01  0.1709E+02
  14.376  0.1147E+01  0.1710E+02
  14.386  0.1173E+01  0.1711E+02
  14.396  0.1202E+01  0.1712E+02
  14.406  0.1234E+01  0.1713E+02
  14.416  0.1269E+01  0.1715E+02
  14.426  0.1306E+01  0.1716E+02
  14.436  0.1346E+01  0.1717E+02
  14.446  0.1388E+01  0.1719E+02
  14.456  0.1430E+01  0.1720E+02
  14.466  0.1472E+01  0.1722E+02
  14.476  0.1514E+01  0.1723E+02
  14.486  0.1555E+01  0.1725E+02
  14.496  0.1594E+01  0.1726E+02
  14.506  0.1631E+01  0.1728E+02
  14.516  0.1664E+01  0.1730E+02
  14.526  0.1693E+01  0.1731E+02
  14.536  0.1718E+01  0.1733E+02
  14.546  0.1738E+01  0.1735E+02
  14.556  0.1752E+01  0.1736E+02
  14.566  0.1761E+01  0.1738E+02
  14.576  0.1765E+01  0.1740E+02
  14.586  0.1762E+01  0.1742E+02
  14.596  0.1754E+01  0.1743E+02
  14.606  0.1741E+01  0.1745E+02
  14.616  0.1722E+01  0.1747E+02
  14.626  0.1699E+01  0.1749E+02
  14.636  0.1670E+01  0.1750E+02
  14.646  0.1638E+01  0.1752E+02
  14.656  0.1602E+01  0.1754E+02
  14.666  0.1563E+01  0.1755E+02
  14.676  0.1520E+01  0.1757E+02
  14.686  0.1476E+01  0.1758E+02
  14.696  0.1429E+01  0.1760E+02
  14.706  0.1382E+01  0.1761E+02
  14.716  0.1333E+01  0.1762E+02
  14.726  0.1285E+01  0.1764E+02
  14.736  0.1236E+01  0.1765E+02
  14.746  0.1189E+01  0.1766E+02
  14.756  0.1142E+01  0.1767E+02
  14.766  0.1098E+01  0.1768E+02
  14.776  0.1056E+01  0.1769E+02
  14.786  0.1017E+01  0.1770E+02
  14.796  0.9819E+00  0.1771E+02
  14.806  0.9501E+00  0.1772E+02
  14.816  0.9225E+00  0.1773E+02
  14.826  0.8991E+00  0.1774E+02
  14.836  0.8802E+00  0.1775E+02
  14.846  0.8658E+00  0.1776E+02
  14.856  0.8557E+00  0.1777E+02
  14.866  0.8499E+00  0.1777E+02
  14.876  0.8480E+00  0.1778E+02
  14.886  0.8497E+00  0.1779E+02
  14.896  0.8545E+00  0.1780E+02
  14.906  0.8620E+00  0.1781E+02
  14.916  0.8715E+00  0.1782E+02
  14.926  0.8826E+00  0.1783E+02
  14.936  0.8947E+00  0.1784E+02
  14.946  0.9071E+00  0.1784E+02
  14.956  0.9196E+00  0.1785E+02
  14.966  0.9315E+00  0.1786E+02
  14.976  0.9426E+00  0.1787E+02
  14.986  0.9524E+00  0.1788E+02
  14.996  0.9609E+00  0.1789E+02
  15.006  0.9679E+00  0.1790E+02
  15.016  0.9734E+00  0.1791E+02
  15.026  0.9773E+00  0.1792E+02
  15.036  0.9798E+00  0.1793E+02
  15.046  0.9812E+00  0.1794E+02
  15.056  0.9814E+00  0.1795E+02
  15.066  0.9810E+00  0.1796E+02
  15.076  0.9800E+00  0.1797E+02
  15.086  0.9788E+00  0.1798E+02
  15.096  0.9778E+00  0.1799E+02
  15.106  0.9771E+00  0.1800E+02
  15.116  0.9771E+00  0.1801E+02
  15.126  0.9780E+00  0.1802E+02
  15.136  0.9802E+00  0.1803E+02
  15.146  0.9839E+00  0.1804E+02
  15.156  0.9892E+00  0.1805E+02
  15.166  0.9966E+00  0.1806E+02
  15.176  0.1006E+01  0.1807E+02
  15.186  0.1018E+01  0.1808E+02
  15.196  0.1033E+01  0.1809E+02
  15.206  0.1050E+01  0.1810E+02
  15.216  0.1070E+01  0.1811E+02
  15.226  0.1093E+01  0.1812E+02
  15.236  0.1119E+01  0.1813E+02
  15.246  0.1148E+01  0.1814E+02
  15.256  0.1179E+01  0.1816E+02
  15.266  0.1213E+01  0.1817E+02
  15.276  0.1249E+01  0.1818E+02
  15.286  0.1286E+01  0.1819E+02
  15.296  0.1324E+01  0.1821E+02
  15.306  0.1363E+01  0.1822E+02
  15.316  0.1401E+01  0.1823E+02
  15.326  0.1438E+01  0.1825E+02
  15.336  0.1473E+01  0.1826E+02
  15.346  0.1506E+01  0.1828E+02
  15.356  0.1535E+01  0.1829E+02
  15.366  0.1561E+01  0.1831E+02
  15.376  0.1582E+01  0.1832E+02
  15.386  0.1599E+01  0.1834E+02
  15.396  0.1611E+01  0.1836E+02
  15.406  0.1617E+01  0.1837E+02
  15.416  0.1619E+01  0.1839E+02
  15.426  0.1616E+01  0.1841E+02
  15.436  0.1608E+01  0.1842E+02
  15.446  0.1596E+01  0.1844E+02
  15.456  0.1580E+01  0.1845E+02
  15.466  0.1561E+01  0.1847E+02
  15.476  0.1539E+01  0.1848E+02
  15.486  0.1514E+01  0.1850E+02
  15.496  0.1487E+01  0.1851E+02
  15.506  0.1458E+01  0.1853E+02
  15.516  0.1429E+01  0.1854E+02
  15.526  0.1398E+01  0.1856E+02
  15.536  0.1367E+01  0.1857E+02
  15.546  0.1336E+01  0.1858E+02
  15.556  0.1305E+01  0.1860E+02
  15.566  0.1274E+01  0.1861E+02
  15.576  0.1244E+01  0.1862E+02
  15.586  0.1214E+01  0.1863E+02
  15.596  0.1185E+01  0.1865E+02
  15.606  0.1157E+01  0.1866E+02
  15.616  0.1130E+01  0.1867E+02
  15.626  0.1105E+01  0.1868E+02
  15.636  0.1082E+01  0.1869E+02
  15.646  0.1060E+01  0.1870E+02
  15.656  0.1040E+01  0.1871E+02
  15.666  0.1023E+01  0.1872E+02
  15.676  0.1008E+01  0.1873E+02
  15.686  0.9958E+00  0.1874E+02
  15.696  0.9860E+00  0.1875E+02
  15.706  0.9785E+00  0.1876E+02
  15.716  0.9734E+00  0.1877E+02
  15.726  0.9703E+00  0.1878E+02
  15.736  0.9691E+00  0.1879E+02
  15.746  0.9692E+00  0.1880E+02
  15.756  0.9705E+00  0.1881E+02
  15.766  0.9724E+00  0.1882E+02
  15.776  0.9745E+00  0.1883E+02
  15.786  0.9764E+00  0.1884E+02
  15.796  0.9778E+00  0.1885E+02
  15.806  0.9782E+00  0.1886E+02
  15.816  0.9776E+00  0.1887E+02
  15.826  0.9757E+00  0.1888E+02
  15.836  0.9723E+00  0.1889E+02
  15.846  0.9674E+00  0.1890E+02
  15.856  0.9611E+00  0.1891E+02
  15.866  0.9535E+00  0.1892E+02
  15.876  0.9447E+00  0.1893E+02
  15.886  0.9349E+00  0.1894E+02
  15.896  0.9242E+00  0.1895E+02
  15.906  0.9129E+00  0.1895E+02
  15.916  0.9012E+00  0.1896E+02
  15.926  0.8893E+00  0.1897E+02
  15.936  0.8774E+00  0.1898E+02
  15.946  0.8657E+00  0.1899E+02
  15.956  0.8542E+00  0.1900E+02
  15.966  0.8432E+00  0.1901E+02
  15.976  0.8328E+00  0.1902E+02
  15.986  0.8232E+00  0.1902E+02
  15.996  0.8144E+00  0.1903E+02
  16.006  0.8066E+00  0.1904E+02
  16.016  0.7999E+00  0.1905E+02
  16.026  0.7944E+00  0.1906E+02
  16.036  0.7904E+00  0.1906E+02
  16.046  0.7879E+00  0.1907E+02
  16.056  0.7870E+00  0.1908E+02
  16.066  0.7879E+00  0.1909E+02
  16.076  0.7906E+00  0.1910E+02
  16.086  0.7952E+00  0.1910E+02
  16.096  0.8017E+00  0.1911E+02
  16.106  0.8102E+00  0.1912E+02
  16.116  0.8206E+00  0.1913E+02
  16.126  0.8328E+00  0.1914E+02
  16.136  0.8468E+00  0.1914E+02
  16.146  0.8624E+00  0.1915E+02
  16.156  0.8795E+00  0.1916E+02
  16.166  0.8978E+00  0.1917E+02
  16.176  0.9173E+00  0.1918E+02
  16.186  0.9376E+00  0.1919E+02
  16.196  0.9585E+00  0.1920E+02
  16.206  0.9798E+00  0.1921E+02
  16.216  0.1001E+01  0.1922E+02
  16.226  0.1023E+01  0.1923E+02
  16.236  0.1044E+01  0.1924E+02
  16.246  0.1064E+01  0.1925E+02
  16.256  0.1083E+01  0.1926E+02
  16.266  0.1102E+01  0.1927E+02
  16.276  0.1118E+01  0.1928E+02
  16.286  0.1134E+01  0.1929E+02
  16.296  0.1147E+01  0.1931E+02
  16.306  0.1159E+01  0.1932E+02
  16.316  0.1168E+01  0.1933E+02
  16.326  0.1175E+01  0.1934E+02
  16.336  0.1180E+01  0.1935E+02
  16.346  0.1183E+01  0.1936E+02
  16.356  0.1183E+01  0.1938E+02
  16.366  0.1181E+01  0.1939E+02
  16.376  0.1177E+01  0.1940E+02
  16.386  0.1171E+01  0.1941E+02
  16.396  0.1163E+01  0.1942E+02
  16.406  0.1153E+01  0.1943E+02
  16.416  0.1142E+01  0.1945E+02
  16.426  0.1129E+01  0.1946E+02
  16.436  0.1115E+01  0.1947E+02
  16.446  0.1100E+01  0.1948E+02
  16.456  0.1084E+01  0.1949E+02
  16.466  0.1067E+01  0.1950E+02
  16.476  0.1050E+01  0.1951E+02
  16.486  0.1033E+01  0.1952E+02
  16.496  0.1017E+01  0.1953E+02
  16.506  0.1001E+01  0.1954E+02
  16.516  0.9852E+00  0.1955E+02
  16.526  0.9708E+00  0.1956E+02
  16.536  0.9577E+00  0.1957E+02
  16.546  0.9459E+00  0.1958E+02
  16.556  0.9357E+00  0.1959E+02
  16.566  0.9270E+00  0.1960E+02
  16.576  0.9199E+00  0.1961E+02
  16.586  0.9143E+00  0.1962E+02
  16.596  0.9101E+00  0.1963E+02
  16.606  0.9070E+00  0.1964E+02
  16.616  0.9048E+00  0.1964E+02
  16.626  0.9032E+00  0.1965E+02
  16.636  0.9017E+00  0.1966E+02
  16.646  0.9000E+00  0.1967E+02
  16.656  0.8976E+00  0.1968E+02
  16.666  0.8942E+00  0.1969E+02
  16.676  0.8894E+00  0.1970E+02
  16.686  0.8830E+00  0.1971E+02
  16.696  0.8746E+00  0.1972E+02
  16.706  0.8641E+00  0.1972E+02
  16.716  0.8514E+00  0.1973E+02
  16.726  0.8365E+00  0.1974E+02
  16.736  0.8195E+00  0.1975E+02
  16.746  0.8006E+00  0.1976E+02
  16.756  0.7801E+00  0.1977E+02
  16.766  0.7582E+00  0.1977E+02
  16.776  0.7353E+00  0.1978E+02
  16.786  0.7117E+00  0.1979E+02
  16.796  0.6879E+00  0.1979E+02
  16.806  0.6642E+00  0.1980E+02
  16.816  0.6409E+00  0.1981E+02
  16.826  0.6183E+00  0.1981E+02
  16.836  0.5967E+00  0.1982E+02
  16.846  0.5761E+00  0.1983E+02
  16.856  0.5568E+00  0.1983E+02
  16.866  0.5388E+00  0.1984E+02
  16.876  0.5220E+00  0.1984E+02
  16.886  0.5065E+00  0.1985E+02
  16.896  0.4920E+00  0.1985E+02
  16.906  0.4786E+00  0.1986E+02
  16.916  0.4659E+00  0.1986E+02
  16.926  0.4540E+00  0.1987E+02
  16.936  0.4427E+00  0.1987E+02
  16.946  0.4319E+00  0.1987E+02
  16.956  0.4214E+00  0.1988E+02
  16.966  0.4112E+00  0.1988E+02
  16.976  0.4012E+00  0.1989E+02
  16.986  0.3914E+00  0.1989E+02
  16.996  0.3819E+00  0.1989E+02
  17.006  0.3725E+00  0.1990E+02
  17.016  0.3634E+00  0.1990E+02
  17.026  0.3546E+00  0.1991E+02
  17.036  0.3461E+00  0.1991E+02
  17.046  0.3381E+00  0.1991E+02
  17.056  0.3304E+00  0.1992E+02
  17.066  0.3232E+00  0.1992E+02
  17.076  0.3164E+00  0.1992E+02
  17.086  0.3102E+00  0.1993E+02
  17.096  0.3044E+00  0.1993E+02
  17.106  0.2990E+00  0.1993E+02
  17.116  0.2940E+00  0.1993E+02
  17.126  0.2894E+00  0.1994E+02
  17.136  0.2850E+00  0.1994E+02
  17.146  0.2808E+00  0.1994E+02
  17.156  0.2768E+00  0.1995E+02
  17.166  0.2727E+00  0.1995E+02
  17.176  0.2685E+00  0.1995E+02
  17.186  0.2641E+00  0.1995E+02
  17.196  0.2595E+00  0.1996E+02
  17.206  0.2546E+00  0.1996E+02
  17.216  0.2492E+00  0.1996E+02
  17.226  0.2435E+00  0.1996E+02
  17.236  0.2372E+00  0.1997E+02
  17.246  0.2305E+00  0.1997E+02
  17.256  0.2234E+00  0.1997E+02
  17.266  0.2158E+00  0.1997E+02
  17.276  0.2079E+00  0.1997E+02
  17.286  0.1995E+00  0.1998E+02
  17.296  0.1909E+00  0.1998E+02
  17.306  0.1820E+00  0.1998E+02
  17.316  0.1729E+00  0.1998E+02
  17.326  0.1637E+00  0.1998E+02
  17.336  0.1544E+00  0.1999E+02
  17.346  0.1451E+00  0.1999E+02
  17.356  0.1358E+00  0.1999E+02
  17.366  0.1266E+00  0.1999E+02
  17.376  0.1175E+00  0.1999E+02
  17.386  0.1086E+00  0.1999E+02
  17.396  0.9986E-01  0.1999E+02
  17.406  0.9138E-01  0.1999E+02
  17.416  0.8318E-01  0.1999E+02
  17.426  0.7528E-01  0.2000E+02
  17.436  0.6774E-01  0.2000E+02
  17.446  0.6057E-01  0.2000E+02
  17.456  0.5381E-01  0.2000E+02
  17.466  0.4748E-01  0.2000E+02
  17.476  0.4159E-01  0.2000E+02
  17.486  0.3617E-01  0.2000E+02
  17.496  0.3121E-01  0.2000E+02
  17.506  0.2672E-01  0.2000E+02
  17.516  0.2269E-01  0.2000E+02
  17.526  0.1910E-01  0.2000E+02
  17.536  0.1594E-01  0.2000E+02
  17.546  0.1319E-01  0.2000E+02
  17.556  0.1082E-01  0.2000E+02
  17.566  0.8792E-02  0.2000E+02
  17.576  0.7079E-02  0.2000E+02
  17.586  0.5647E-02  0.2000E+02
  17.596  0.4461E-02  0.2000E+02
  17.606  0.3491E-02  0.2000E+02
  17.616  0.2706E-02  0.2000E+02
  17.626  0.2077E-02  0.2000E+02
  17.636  0.1578E-02  0.2000E+02
  17.646  0.1187E-02  0.2000E+02
  17.656  0.8846E-03  0.2000E+02
  17.666  0.6524E-03  0.2000E+02
  17.676  0.4764E-03  0.2000E+02
  17.686  0.3443E-03  0.2000E+02
  17.696  0.2464E-03  0.2000E+02
  17.706  0.1745E-03  0.2000E+02
  17.716  0.1223E-03  0.2000E+02
  17.726  0.8489E-04  0.2000E+02
  17.736  0.5831E-04  0.2000E+02
  17.746  0.3964E-04  0.2000E+02
  17.756  0.2667E-04  0.2000E+02
  17.766  0.1776E-04  0.2000E+02
  17.776  0.1170E-04  0.2000E+02
  17.786  0.7633E-05  0.2000E+02
  17.796  0.4927E-05  0.2000E+02
  17.806  0.3147E-05  0.2000E+02
