#  E (eV)   dos(E)     Int dos(E) EFermi =    6.206 eV
  -6.238  0.4756E-06  0.4756E-08
  -6.228  0.7600E-06  0.1236E-07
  -6.218  0.1202E-05  0.2438E-07
  -6.208  0.1883E-05  0.4321E-07
  -6.198  0.2919E-05  0.7240E-07
  -6.188  0.4481E-05  0.1172E-06
  -6.178  0.6810E-05  0.1853E-06
  -6.168  0.1025E-04  0.2878E-06
  -6.158  0.1526E-04  0.4404E-06
  -6.148  0.2251E-04  0.6655E-06
  -6.138  0.3287E-04  0.9942E-06
  -6.128  0.4754E-04  0.1470E-05
  -6.118  0.6808E-04  0.2150E-05
  -6.108  0.9654E-04  0.3116E-05
  -6.098  0.1356E-03  0.4472E-05
  -6.088  0.1886E-03  0.6358E-05
  -6.078  0.2598E-03  0.8956E-05
  -6.068  0.3545E-03  0.1250E-04
  -6.058  0.4791E-03  0.1729E-04
  -6.048  0.6415E-03  0.2371E-04
  -6.038  0.8510E-03  0.3222E-04
  -6.028  0.1118E-02  0.4340E-04
  -6.018  0.1456E-02  0.5796E-04
  -6.008  0.1879E-02  0.7675E-04
  -5.998  0.2403E-02  0.1008E-03
  -5.988  0.3045E-02  0.1312E-03
  -5.978  0.3824E-02  0.1695E-03
  -5.968  0.4762E-02  0.2171E-03
  -5.958  0.5878E-02  0.2759E-03
  -5.948  0.7194E-02  0.3478E-03
  -5.938  0.8731E-02  0.4351E-03
  -5.928  0.1051E-01  0.5402E-03
  -5.918  0.1255E-01  0.6657E-03
  -5.908  0.1486E-01  0.8142E-03
  -5.898  0.1746E-01  0.9888E-03
  -5.888  0.2035E-01  0.1192E-02
  -5.878  0.2355E-01  0.1428E-02
  -5.868  0.2705E-01  0.1698E-02
  -5.858  0.3085E-01  0.2007E-02
  -5.848  0.3493E-01  0.2356E-02
  -5.838  0.3929E-01  0.2749E-02
  -5.828  0.4390E-01  0.3188E-02
  -5.818  0.4873E-01  0.3675E-02
  -5.808  0.5377E-01  0.4213E-02
  -5.798  0.5899E-01  0.4803E-02
  -5.788  0.6434E-01  0.5446E-02
  -5.778  0.6980E-01  0.6144E-02
  -5.768  0.7534E-01  0.6898E-02
  -5.758  0.8092E-01  0.7707E-02
  -5.748  0.8651E-01  0.8572E-02
  -5.738  0.9209E-01  0.9493E-02
  -5.728  0.9762E-01  0.1047E-01
  -5.718  0.1031E+00  0.1150E-01
  -5.708  0.1085E+00  0.1258E-01
  -5.698  0.1138E+00  0.1372E-01
  -5.688  0.1189E+00  0.1491E-01
  -5.678  0.1239E+00  0.1615E-01
  -5.668  0.1288E+00  0.1744E-01
  -5.658  0.1336E+00  0.1877E-01
  -5.648  0.1382E+00  0.2016E-01
  -5.638  0.1426E+00  0.2158E-01
  -5.628  0.1470E+00  0.2305E-01
  -5.618  0.1511E+00  0.2456E-01
  -5.608  0.1552E+00  0.2612E-01
  -5.598  0.1592E+00  0.2771E-01
  -5.588  0.1630E+00  0.2934E-01
  -5.578  0.1668E+00  0.3101E-01
  -5.568  0.1705E+00  0.3271E-01
  -5.558  0.1741E+00  0.3445E-01
  -5.548  0.1777E+00  0.3623E-01
  -5.538  0.1813E+00  0.3804E-01
  -5.528  0.1848E+00  0.3989E-01
  -5.518  0.1883E+00  0.4177E-01
  -5.508  0.1917E+00  0.4369E-01
  -5.498  0.1951E+00  0.4564E-01
  -5.488  0.1984E+00  0.4763E-01
  -5.478  0.2016E+00  0.4964E-01
  -5.468  0.2047E+00  0.5169E-01
  -5.458  0.2077E+00  0.5377E-01
  -5.448  0.2106E+00  0.5587E-01
  -5.438  0.2134E+00  0.5801E-01
  -5.428  0.2161E+00  0.6017E-01
  -5.418  0.2186E+00  0.6235E-01
  -5.408  0.2211E+00  0.6456E-01
  -5.398  0.2236E+00  0.6680E-01
  -5.388  0.2261E+00  0.6906E-01
  -5.378  0.2286E+00  0.7135E-01
  -5.368  0.2311E+00  0.7366E-01
  -5.358  0.2337E+00  0.7600E-01
  -5.348  0.2365E+00  0.7836E-01
  -5.338  0.2393E+00  0.8075E-01
  -5.328  0.2423E+00  0.8318E-01
  -5.318  0.2453E+00  0.8563E-01
  -5.308  0.2485E+00  0.8811E-01
  -5.298  0.2517E+00  0.9063E-01
  -5.288  0.2549E+00  0.9318E-01
  -5.278  0.2580E+00  0.9576E-01
  -5.268  0.2611E+00  0.9837E-01
  -5.258  0.2639E+00  0.1010E+00
  -5.248  0.2666E+00  0.1037E+00
  -5.238  0.2691E+00  0.1064E+00
  -5.228  0.2714E+00  0.1091E+00
  -5.218  0.2734E+00  0.1118E+00
  -5.208  0.2752E+00  0.1146E+00
  -5.198  0.2768E+00  0.1173E+00
  -5.188  0.2782E+00  0.1201E+00
  -5.178  0.2796E+00  0.1229E+00
  -5.168  0.2809E+00  0.1257E+00
  -5.158  0.2823E+00  0.1285E+00
  -5.148  0.2838E+00  0.1314E+00
  -5.138  0.2855E+00  0.1342E+00
  -5.128  0.2873E+00  0.1371E+00
  -5.118  0.2895E+00  0.1400E+00
  -5.108  0.2920E+00  0.1429E+00
  -5.098  0.2947E+00  0.1459E+00
  -5.088  0.2977E+00  0.1488E+00
  -5.078  0.3010E+00  0.1519E+00
  -5.068  0.3044E+00  0.1549E+00
  -5.058  0.3080E+00  0.1580E+00
  -5.048  0.3117E+00  0.1611E+00
  -5.038  0.3153E+00  0.1643E+00
  -5.028  0.3189E+00  0.1674E+00
  -5.018  0.3223E+00  0.1707E+00
  -5.008  0.3255E+00  0.1739E+00
  -4.998  0.3283E+00  0.1772E+00
  -4.988  0.3309E+00  0.1805E+00
  -4.978  0.3330E+00  0.1838E+00
  -4.968  0.3347E+00  0.1872E+00
  -4.958  0.3361E+00  0.1905E+00
  -4.948  0.3370E+00  0.1939E+00
  -4.938  0.3376E+00  0.1973E+00
  -4.928  0.3380E+00  0.2007E+00
  -4.918  0.3382E+00  0.2041E+00
  -4.908  0.3383E+00  0.2074E+00
  -4.898  0.3384E+00  0.2108E+00
  -4.888  0.3386E+00  0.2142E+00
  -4.878  0.3390E+00  0.2176E+00
  -4.868  0.3397E+00  0.2210E+00
  -4.858  0.3409E+00  0.2244E+00
  -4.848  0.3425E+00  0.2278E+00
  -4.838  0.3447E+00  0.2313E+00
  -4.828  0.3473E+00  0.2347E+00
  -4.818  0.3506E+00  0.2383E+00
  -4.808  0.3543E+00  0.2418E+00
  -4.798  0.3584E+00  0.2454E+00
  -4.788  0.3629E+00  0.2490E+00
  -4.778  0.3676E+00  0.2527E+00
  -4.768  0.3724E+00  0.2564E+00
  -4.758  0.3773E+00  0.2602E+00
  -4.748  0.3819E+00  0.2640E+00
  -4.738  0.3863E+00  0.2679E+00
  -4.728  0.3903E+00  0.2718E+00
  -4.718  0.3938E+00  0.2757E+00
  -4.708  0.3968E+00  0.2797E+00
  -4.698  0.3991E+00  0.2837E+00
  -4.688  0.4008E+00  0.2877E+00
  -4.678  0.4019E+00  0.2917E+00
  -4.668  0.4024E+00  0.2957E+00
  -4.658  0.4024E+00  0.2997E+00
  -4.648  0.4019E+00  0.3038E+00
  -4.638  0.4011E+00  0.3078E+00
  -4.628  0.4000E+00  0.3118E+00
  -4.618  0.3988E+00  0.3158E+00
  -4.608  0.3976E+00  0.3197E+00
  -4.598  0.3965E+00  0.3237E+00
  -4.588  0.3958E+00  0.3277E+00
  -4.578  0.3954E+00  0.3316E+00
  -4.568  0.3955E+00  0.3356E+00
  -4.558  0.3962E+00  0.3395E+00
  -4.548  0.3976E+00  0.3435E+00
  -4.538  0.3998E+00  0.3475E+00
  -4.528  0.4026E+00  0.3515E+00
  -4.518  0.4062E+00  0.3556E+00
  -4.508  0.4105E+00  0.3597E+00
  -4.498  0.4154E+00  0.3639E+00
  -4.488  0.4208E+00  0.3681E+00
  -4.478  0.4266E+00  0.3723E+00
  -4.468  0.4326E+00  0.3767E+00
  -4.458  0.4386E+00  0.3810E+00
  -4.448  0.4446E+00  0.3855E+00
  -4.438  0.4503E+00  0.3900E+00
  -4.428  0.4556E+00  0.3945E+00
  -4.418  0.4603E+00  0.3991E+00
  -4.408  0.4644E+00  0.4038E+00
  -4.398  0.4678E+00  0.4085E+00
  -4.388  0.4703E+00  0.4132E+00
  -4.378  0.4721E+00  0.4179E+00
  -4.368  0.4731E+00  0.4226E+00
  -4.358  0.4734E+00  0.4274E+00
  -4.348  0.4732E+00  0.4321E+00
  -4.338  0.4724E+00  0.4368E+00
  -4.328  0.4713E+00  0.4415E+00
  -4.318  0.4699E+00  0.4462E+00
  -4.308  0.4684E+00  0.4509E+00
  -4.298  0.4670E+00  0.4556E+00
  -4.288  0.4656E+00  0.4602E+00
  -4.278  0.4645E+00  0.4649E+00
  -4.268  0.4637E+00  0.4695E+00
  -4.258  0.4633E+00  0.4742E+00
  -4.248  0.4633E+00  0.4788E+00
  -4.238  0.4639E+00  0.4834E+00
  -4.228  0.4649E+00  0.4881E+00
  -4.218  0.4664E+00  0.4927E+00
  -4.208  0.4685E+00  0.4974E+00
  -4.198  0.4712E+00  0.5021E+00
  -4.188  0.4744E+00  0.5069E+00
  -4.178  0.4782E+00  0.5117E+00
  -4.168  0.4825E+00  0.5165E+00
  -4.158  0.4873E+00  0.5214E+00
  -4.148  0.4926E+00  0.5263E+00
  -4.138  0.4983E+00  0.5313E+00
  -4.128  0.5043E+00  0.5363E+00
  -4.118  0.5106E+00  0.5414E+00
  -4.108  0.5170E+00  0.5466E+00
  -4.098  0.5235E+00  0.5518E+00
  -4.088  0.5299E+00  0.5571E+00
  -4.078  0.5361E+00  0.5625E+00
  -4.068  0.5419E+00  0.5679E+00
  -4.058  0.5473E+00  0.5734E+00
  -4.048  0.5521E+00  0.5789E+00
  -4.038  0.5562E+00  0.5845E+00
  -4.028  0.5596E+00  0.5901E+00
  -4.018  0.5623E+00  0.5957E+00
  -4.008  0.5641E+00  0.6013E+00
  -3.998  0.5652E+00  0.6070E+00
  -3.988  0.5655E+00  0.6126E+00
  -3.978  0.5652E+00  0.6183E+00
  -3.968  0.5642E+00  0.6239E+00
  -3.958  0.5627E+00  0.6295E+00
  -3.948  0.5608E+00  0.6352E+00
  -3.938  0.5587E+00  0.6407E+00
  -3.928  0.5565E+00  0.6463E+00
  -3.918  0.5543E+00  0.6518E+00
  -3.908  0.5522E+00  0.6574E+00
  -3.898  0.5505E+00  0.6629E+00
  -3.888  0.5493E+00  0.6684E+00
  -3.878  0.5487E+00  0.6739E+00
  -3.868  0.5488E+00  0.6793E+00
  -3.858  0.5498E+00  0.6848E+00
  -3.848  0.5517E+00  0.6904E+00
  -3.838  0.5545E+00  0.6959E+00
  -3.828  0.5584E+00  0.7015E+00
  -3.818  0.5634E+00  0.7071E+00
  -3.808  0.5694E+00  0.7128E+00
  -3.798  0.5764E+00  0.7186E+00
  -3.788  0.5843E+00  0.7244E+00
  -3.778  0.5931E+00  0.7304E+00
  -3.768  0.6026E+00  0.7364E+00
  -3.758  0.6126E+00  0.7425E+00
  -3.748  0.6230E+00  0.7487E+00
  -3.738  0.6336E+00  0.7551E+00
  -3.728  0.6442E+00  0.7615E+00
  -3.718  0.6546E+00  0.7681E+00
  -3.708  0.6647E+00  0.7747E+00
  -3.698  0.6742E+00  0.7814E+00
  -3.688  0.6830E+00  0.7883E+00
  -3.678  0.6910E+00  0.7952E+00
  -3.668  0.6980E+00  0.8022E+00
  -3.658  0.7041E+00  0.8092E+00
  -3.648  0.7091E+00  0.8163E+00
  -3.638  0.7131E+00  0.8234E+00
  -3.628  0.7160E+00  0.8306E+00
  -3.618  0.7180E+00  0.8378E+00
  -3.608  0.7191E+00  0.8450E+00
  -3.598  0.7195E+00  0.8522E+00
  -3.588  0.7193E+00  0.8593E+00
  -3.578  0.7187E+00  0.8665E+00
  -3.568  0.7178E+00  0.8737E+00
  -3.558  0.7168E+00  0.8809E+00
  -3.548  0.7161E+00  0.8880E+00
  -3.538  0.7157E+00  0.8952E+00
  -3.528  0.7159E+00  0.9024E+00
  -3.518  0.7169E+00  0.9095E+00
  -3.508  0.7189E+00  0.9167E+00
  -3.498  0.7221E+00  0.9239E+00
  -3.488  0.7266E+00  0.9312E+00
  -3.478  0.7326E+00  0.9385E+00
  -3.468  0.7399E+00  0.9459E+00
  -3.458  0.7488E+00  0.9534E+00
  -3.448  0.7590E+00  0.9610E+00
  -3.438  0.7705E+00  0.9687E+00
  -3.428  0.7830E+00  0.9765E+00
  -3.418  0.7963E+00  0.9845E+00
  -3.408  0.8101E+00  0.9926E+00
  -3.398  0.8240E+00  0.1001E+01
  -3.388  0.8376E+00  0.1009E+01
  -3.378  0.8505E+00  0.1018E+01
  -3.368  0.8623E+00  0.1026E+01
  -3.358  0.8727E+00  0.1035E+01
  -3.348  0.8813E+00  0.1044E+01
  -3.338  0.8878E+00  0.1053E+01
  -3.328  0.8921E+00  0.1062E+01
  -3.318  0.8940E+00  0.1071E+01
  -3.308  0.8934E+00  0.1080E+01
  -3.298  0.8904E+00  0.1088E+01
  -3.288  0.8852E+00  0.1097E+01
  -3.278  0.8778E+00  0.1106E+01
  -3.268  0.8687E+00  0.1115E+01
  -3.258  0.8580E+00  0.1123E+01
  -3.248  0.8462E+00  0.1132E+01
  -3.238  0.8335E+00  0.1140E+01
  -3.228  0.8205E+00  0.1148E+01
  -3.218  0.8074E+00  0.1156E+01
  -3.208  0.7946E+00  0.1164E+01
  -3.198  0.7824E+00  0.1172E+01
  -3.188  0.7711E+00  0.1180E+01
  -3.178  0.7610E+00  0.1188E+01
  -3.168  0.7522E+00  0.1195E+01
  -3.158  0.7449E+00  0.1203E+01
  -3.148  0.7392E+00  0.1210E+01
  -3.138  0.7351E+00  0.1217E+01
  -3.128  0.7327E+00  0.1225E+01
  -3.118  0.7320E+00  0.1232E+01
  -3.108  0.7327E+00  0.1239E+01
  -3.098  0.7349E+00  0.1247E+01
  -3.088  0.7383E+00  0.1254E+01
  -3.078  0.7427E+00  0.1261E+01
  -3.068  0.7479E+00  0.1269E+01
  -3.058  0.7535E+00  0.1276E+01
  -3.048  0.7593E+00  0.1284E+01
  -3.038  0.7650E+00  0.1292E+01
  -3.028  0.7701E+00  0.1299E+01
  -3.018  0.7745E+00  0.1307E+01
  -3.008  0.7778E+00  0.1315E+01
  -2.998  0.7799E+00  0.1323E+01
  -2.988  0.7805E+00  0.1330E+01
  -2.978  0.7795E+00  0.1338E+01
  -2.968  0.7769E+00  0.1346E+01
  -2.958  0.7727E+00  0.1354E+01
  -2.948  0.7670E+00  0.1361E+01
  -2.938  0.7599E+00  0.1369E+01
  -2.928  0.7516E+00  0.1377E+01
  -2.918  0.7423E+00  0.1384E+01
  -2.908  0.7323E+00  0.1391E+01
  -2.898  0.7220E+00  0.1399E+01
  -2.888  0.7114E+00  0.1406E+01
  -2.878  0.7010E+00  0.1413E+01
  -2.868  0.6908E+00  0.1420E+01
  -2.858  0.6812E+00  0.1426E+01
  -2.848  0.6723E+00  0.1433E+01
  -2.838  0.6643E+00  0.1440E+01
  -2.828  0.6572E+00  0.1446E+01
  -2.818  0.6511E+00  0.1453E+01
  -2.808  0.6460E+00  0.1459E+01
  -2.798  0.6420E+00  0.1466E+01
  -2.788  0.6391E+00  0.1472E+01
  -2.778  0.6371E+00  0.1478E+01
  -2.768  0.6360E+00  0.1485E+01
  -2.758  0.6358E+00  0.1491E+01
  -2.748  0.6363E+00  0.1498E+01
  -2.738  0.6375E+00  0.1504E+01
  -2.728  0.6392E+00  0.1510E+01
  -2.718  0.6412E+00  0.1517E+01
  -2.708  0.6434E+00  0.1523E+01
  -2.698  0.6456E+00  0.1530E+01
  -2.688  0.6476E+00  0.1536E+01
  -2.678  0.6493E+00  0.1543E+01
  -2.668  0.6505E+00  0.1549E+01
  -2.658  0.6509E+00  0.1556E+01
  -2.648  0.6506E+00  0.1562E+01
  -2.638  0.6493E+00  0.1569E+01
  -2.628  0.6471E+00  0.1575E+01
  -2.618  0.6437E+00  0.1581E+01
  -2.608  0.6394E+00  0.1588E+01
  -2.598  0.6340E+00  0.1594E+01
  -2.588  0.6277E+00  0.1600E+01
  -2.578  0.6206E+00  0.1607E+01
  -2.568  0.6128E+00  0.1613E+01
  -2.558  0.6045E+00  0.1619E+01
  -2.548  0.5959E+00  0.1625E+01
  -2.538  0.5872E+00  0.1631E+01
  -2.528  0.5785E+00  0.1636E+01
  -2.518  0.5701E+00  0.1642E+01
  -2.508  0.5622E+00  0.1648E+01
  -2.498  0.5548E+00  0.1653E+01
  -2.488  0.5481E+00  0.1659E+01
  -2.478  0.5422E+00  0.1664E+01
  -2.468  0.5373E+00  0.1670E+01
  -2.458  0.5332E+00  0.1675E+01
  -2.448  0.5301E+00  0.1680E+01
  -2.438  0.5280E+00  0.1686E+01
  -2.428  0.5267E+00  0.1691E+01
  -2.418  0.5262E+00  0.1696E+01
  -2.408  0.5264E+00  0.1701E+01
  -2.398  0.5271E+00  0.1707E+01
  -2.388  0.5282E+00  0.1712E+01
  -2.378  0.5296E+00  0.1717E+01
  -2.368  0.5310E+00  0.1722E+01
  -2.358  0.5322E+00  0.1728E+01
  -2.348  0.5332E+00  0.1733E+01
  -2.338  0.5336E+00  0.1738E+01
  -2.328  0.5334E+00  0.1744E+01
  -2.318  0.5324E+00  0.1749E+01
  -2.308  0.5305E+00  0.1754E+01
  -2.298  0.5277E+00  0.1760E+01
  -2.288  0.5238E+00  0.1765E+01
  -2.278  0.5190E+00  0.1770E+01
  -2.268  0.5133E+00  0.1775E+01
  -2.258  0.5067E+00  0.1780E+01
  -2.248  0.4993E+00  0.1785E+01
  -2.238  0.4914E+00  0.1790E+01
  -2.228  0.4830E+00  0.1795E+01
  -2.218  0.4744E+00  0.1800E+01
  -2.208  0.4657E+00  0.1804E+01
  -2.198  0.4571E+00  0.1809E+01
  -2.188  0.4487E+00  0.1814E+01
  -2.178  0.4407E+00  0.1818E+01
  -2.168  0.4333E+00  0.1822E+01
  -2.158  0.4265E+00  0.1827E+01
  -2.148  0.4204E+00  0.1831E+01
  -2.138  0.4151E+00  0.1835E+01
  -2.128  0.4106E+00  0.1839E+01
  -2.118  0.4069E+00  0.1843E+01
  -2.108  0.4039E+00  0.1847E+01
  -2.098  0.4016E+00  0.1851E+01
  -2.088  0.4000E+00  0.1855E+01
  -2.078  0.3988E+00  0.1859E+01
  -2.068  0.3981E+00  0.1863E+01
  -2.058  0.3977E+00  0.1867E+01
  -2.048  0.3974E+00  0.1871E+01
  -2.038  0.3971E+00  0.1875E+01
  -2.028  0.3967E+00  0.1879E+01
  -2.018  0.3960E+00  0.1883E+01
  -2.008  0.3949E+00  0.1887E+01
  -1.998  0.3933E+00  0.1891E+01
  -1.988  0.3912E+00  0.1895E+01
  -1.978  0.3883E+00  0.1899E+01
  -1.968  0.3848E+00  0.1902E+01
  -1.958  0.3806E+00  0.1906E+01
  -1.948  0.3756E+00  0.1910E+01
  -1.938  0.3700E+00  0.1914E+01
  -1.928  0.3637E+00  0.1917E+01
  -1.918  0.3569E+00  0.1921E+01
  -1.908  0.3496E+00  0.1924E+01
  -1.898  0.3419E+00  0.1928E+01
  -1.888  0.3339E+00  0.1931E+01
  -1.878  0.3256E+00  0.1934E+01
  -1.868  0.3170E+00  0.1938E+01
  -1.858  0.3083E+00  0.1941E+01
  -1.848  0.2995E+00  0.1944E+01
  -1.838  0.2906E+00  0.1947E+01
  -1.828  0.2817E+00  0.1949E+01
  -1.818  0.2727E+00  0.1952E+01
  -1.808  0.2637E+00  0.1955E+01
  -1.798  0.2547E+00  0.1957E+01
  -1.788  0.2457E+00  0.1960E+01
  -1.778  0.2368E+00  0.1962E+01
  -1.768  0.2281E+00  0.1964E+01
  -1.758  0.2195E+00  0.1967E+01
  -1.748  0.2111E+00  0.1969E+01
  -1.738  0.2030E+00  0.1971E+01
  -1.728  0.1953E+00  0.1973E+01
  -1.718  0.1879E+00  0.1975E+01
  -1.708  0.1811E+00  0.1976E+01
  -1.698  0.1748E+00  0.1978E+01
  -1.688  0.1690E+00  0.1980E+01
  -1.678  0.1639E+00  0.1982E+01
  -1.668  0.1594E+00  0.1983E+01
  -1.658  0.1554E+00  0.1985E+01
  -1.648  0.1521E+00  0.1986E+01
  -1.638  0.1494E+00  0.1988E+01
  -1.628  0.1472E+00  0.1989E+01
  -1.618  0.1454E+00  0.1991E+01
  -1.608  0.1441E+00  0.1992E+01
  -1.598  0.1430E+00  0.1993E+01
  -1.588  0.1422E+00  0.1995E+01
  -1.578  0.1416E+00  0.1996E+01
  -1.568  0.1411E+00  0.1998E+01
  -1.558  0.1405E+00  0.1999E+01
  -1.548  0.1398E+00  0.2001E+01
  -1.538  0.1391E+00  0.2002E+01
  -1.528  0.1381E+00  0.2003E+01
  -1.518  0.1368E+00  0.2005E+01
  -1.508  0.1354E+00  0.2006E+01
  -1.498  0.1336E+00  0.2007E+01
  -1.488  0.1316E+00  0.2009E+01
  -1.478  0.1294E+00  0.2010E+01
  -1.468  0.1271E+00  0.2011E+01
  -1.458  0.1246E+00  0.2012E+01
  -1.448  0.1223E+00  0.2014E+01
  -1.438  0.1200E+00  0.2015E+01
  -1.428  0.1181E+00  0.2016E+01
  -1.418  0.1166E+00  0.2017E+01
  -1.408  0.1157E+00  0.2018E+01
  -1.398  0.1155E+00  0.2020E+01
  -1.388  0.1163E+00  0.2021E+01
  -1.378  0.1182E+00  0.2022E+01
  -1.368  0.1213E+00  0.2023E+01
  -1.358  0.1257E+00  0.2024E+01
  -1.348  0.1315E+00  0.2026E+01
  -1.338  0.1388E+00  0.2027E+01
  -1.328  0.1476E+00  0.2029E+01
  -1.318  0.1579E+00  0.2030E+01
  -1.308  0.1696E+00  0.2032E+01
  -1.298  0.1826E+00  0.2034E+01
  -1.288  0.1966E+00  0.2036E+01
  -1.278  0.2116E+00  0.2038E+01
  -1.268  0.2273E+00  0.2040E+01
  -1.258  0.2433E+00  0.2042E+01
  -1.248  0.2593E+00  0.2045E+01
  -1.238  0.2752E+00  0.2048E+01
  -1.228  0.2904E+00  0.2051E+01
  -1.218  0.3048E+00  0.2054E+01
  -1.208  0.3179E+00  0.2057E+01
  -1.198  0.3296E+00  0.2060E+01
  -1.188  0.3397E+00  0.2064E+01
  -1.178  0.3479E+00  0.2067E+01
  -1.168  0.3541E+00  0.2071E+01
  -1.158  0.3584E+00  0.2074E+01
  -1.148  0.3608E+00  0.2078E+01
  -1.138  0.3613E+00  0.2081E+01
  -1.128  0.3601E+00  0.2085E+01
  -1.118  0.3575E+00  0.2089E+01
  -1.108  0.3538E+00  0.2092E+01
  -1.098  0.3491E+00  0.2096E+01
  -1.088  0.3440E+00  0.2099E+01
  -1.078  0.3388E+00  0.2102E+01
  -1.068  0.3339E+00  0.2106E+01
  -1.058  0.3297E+00  0.2109E+01
  -1.048  0.3266E+00  0.2112E+01
  -1.038  0.3250E+00  0.2116E+01
  -1.028  0.3252E+00  0.2119E+01
  -1.018  0.3276E+00  0.2122E+01
  -1.008  0.3324E+00  0.2125E+01
  -0.998  0.3398E+00  0.2129E+01
  -0.988  0.3501E+00  0.2132E+01
  -0.978  0.3634E+00  0.2136E+01
  -0.968  0.3796E+00  0.2140E+01
  -0.958  0.3989E+00  0.2144E+01
  -0.948  0.4211E+00  0.2148E+01
  -0.938  0.4460E+00  0.2152E+01
  -0.928  0.4734E+00  0.2157E+01
  -0.918  0.5030E+00  0.2162E+01
  -0.908  0.5345E+00  0.2168E+01
  -0.898  0.5673E+00  0.2173E+01
  -0.888  0.6012E+00  0.2179E+01
  -0.878  0.6357E+00  0.2186E+01
  -0.868  0.6703E+00  0.2192E+01
  -0.858  0.7047E+00  0.2199E+01
  -0.848  0.7385E+00  0.2207E+01
  -0.838  0.7713E+00  0.2214E+01
  -0.828  0.8031E+00  0.2222E+01
  -0.818  0.8336E+00  0.2231E+01
  -0.808  0.8628E+00  0.2239E+01
  -0.798  0.8908E+00  0.2248E+01
  -0.788  0.9176E+00  0.2258E+01
  -0.778  0.9434E+00  0.2267E+01
  -0.768  0.9685E+00  0.2277E+01
  -0.758  0.9929E+00  0.2287E+01
  -0.748  0.1017E+01  0.2297E+01
  -0.738  0.1041E+01  0.2307E+01
  -0.728  0.1065E+01  0.2318E+01
  -0.718  0.1089E+01  0.2329E+01
  -0.708  0.1113E+01  0.2340E+01
  -0.698  0.1137E+01  0.2351E+01
  -0.688  0.1161E+01  0.2363E+01
  -0.678  0.1184E+01  0.2375E+01
  -0.668  0.1207E+01  0.2387E+01
  -0.658  0.1229E+01  0.2399E+01
  -0.648  0.1249E+01  0.2411E+01
  -0.638  0.1267E+01  0.2424E+01
  -0.628  0.1284E+01  0.2437E+01
  -0.618  0.1298E+01  0.2450E+01
  -0.608  0.1309E+01  0.2463E+01
  -0.598  0.1316E+01  0.2476E+01
  -0.588  0.1321E+01  0.2489E+01
  -0.578  0.1323E+01  0.2503E+01
  -0.568  0.1321E+01  0.2516E+01
  -0.558  0.1315E+01  0.2529E+01
  -0.548  0.1307E+01  0.2542E+01
  -0.538  0.1295E+01  0.2555E+01
  -0.528  0.1280E+01  0.2568E+01
  -0.518  0.1263E+01  0.2580E+01
  -0.508  0.1244E+01  0.2593E+01
  -0.498  0.1222E+01  0.2605E+01
  -0.488  0.1198E+01  0.2617E+01
  -0.478  0.1174E+01  0.2629E+01
  -0.468  0.1148E+01  0.2640E+01
  -0.458  0.1121E+01  0.2652E+01
  -0.448  0.1093E+01  0.2662E+01
  -0.438  0.1065E+01  0.2673E+01
  -0.428  0.1037E+01  0.2683E+01
  -0.418  0.1010E+01  0.2694E+01
  -0.408  0.9830E+00  0.2703E+01
  -0.398  0.9569E+00  0.2713E+01
  -0.388  0.9319E+00  0.2722E+01
  -0.378  0.9083E+00  0.2731E+01
  -0.368  0.8862E+00  0.2740E+01
  -0.358  0.8658E+00  0.2749E+01
  -0.348  0.8471E+00  0.2757E+01
  -0.338  0.8304E+00  0.2766E+01
  -0.328  0.8155E+00  0.2774E+01
  -0.318  0.8024E+00  0.2782E+01
  -0.308  0.7911E+00  0.2790E+01
  -0.298  0.7814E+00  0.2798E+01
  -0.288  0.7731E+00  0.2805E+01
  -0.278  0.7660E+00  0.2813E+01
  -0.268  0.7599E+00  0.2821E+01
  -0.258  0.7545E+00  0.2828E+01
  -0.248  0.7495E+00  0.2836E+01
  -0.238  0.7449E+00  0.2843E+01
  -0.228  0.7403E+00  0.2850E+01
  -0.218  0.7355E+00  0.2858E+01
  -0.208  0.7306E+00  0.2865E+01
  -0.198  0.7253E+00  0.2872E+01
  -0.188  0.7197E+00  0.2880E+01
  -0.178  0.7137E+00  0.2887E+01
  -0.168  0.7074E+00  0.2894E+01
  -0.158  0.7009E+00  0.2901E+01
  -0.148  0.6943E+00  0.2908E+01
  -0.138  0.6877E+00  0.2915E+01
  -0.128  0.6813E+00  0.2921E+01
  -0.118  0.6750E+00  0.2928E+01
  -0.108  0.6691E+00  0.2935E+01
  -0.098  0.6635E+00  0.2942E+01
  -0.088  0.6584E+00  0.2948E+01
  -0.078  0.6536E+00  0.2955E+01
  -0.068  0.6492E+00  0.2961E+01
  -0.058  0.6450E+00  0.2968E+01
  -0.048  0.6409E+00  0.2974E+01
  -0.038  0.6369E+00  0.2980E+01
  -0.028  0.6327E+00  0.2987E+01
  -0.018  0.6281E+00  0.2993E+01
  -0.008  0.6232E+00  0.2999E+01
   0.002  0.6178E+00  0.3005E+01
   0.012  0.6119E+00  0.3011E+01
   0.022  0.6054E+00  0.3018E+01
   0.032  0.5985E+00  0.3024E+01
   0.042  0.5911E+00  0.3029E+01
   0.052  0.5836E+00  0.3035E+01
   0.062  0.5759E+00  0.3041E+01
   0.072  0.5685E+00  0.3047E+01
   0.082  0.5613E+00  0.3052E+01
   0.092  0.5546E+00  0.3058E+01
   0.102  0.5487E+00  0.3063E+01
   0.112  0.5435E+00  0.3069E+01
   0.122  0.5392E+00  0.3074E+01
   0.132  0.5357E+00  0.3080E+01
   0.142  0.5331E+00  0.3085E+01
   0.152  0.5313E+00  0.3090E+01
   0.162  0.5300E+00  0.3095E+01
   0.172  0.5292E+00  0.3101E+01
   0.182  0.5287E+00  0.3106E+01
   0.192  0.5282E+00  0.3111E+01
   0.202  0.5277E+00  0.3117E+01
   0.212  0.5268E+00  0.3122E+01
   0.222  0.5256E+00  0.3127E+01
   0.232  0.5238E+00  0.3132E+01
   0.242  0.5215E+00  0.3138E+01
   0.252  0.5187E+00  0.3143E+01
   0.262  0.5153E+00  0.3148E+01
   0.272  0.5115E+00  0.3153E+01
   0.282  0.5074E+00  0.3158E+01
   0.292  0.5030E+00  0.3163E+01
   0.302  0.4985E+00  0.3168E+01
   0.312  0.4939E+00  0.3173E+01
   0.322  0.4893E+00  0.3178E+01
   0.332  0.4848E+00  0.3183E+01
   0.342  0.4804E+00  0.3188E+01
   0.352  0.4761E+00  0.3192E+01
   0.362  0.4720E+00  0.3197E+01
   0.372  0.4679E+00  0.3202E+01
   0.382  0.4638E+00  0.3206E+01
   0.392  0.4598E+00  0.3211E+01
   0.402  0.4557E+00  0.3216E+01
   0.412  0.4516E+00  0.3220E+01
   0.422  0.4475E+00  0.3225E+01
   0.432  0.4434E+00  0.3229E+01
   0.442  0.4394E+00  0.3233E+01
   0.452  0.4356E+00  0.3238E+01
   0.462  0.4321E+00  0.3242E+01
   0.472  0.4290E+00  0.3246E+01
   0.482  0.4264E+00  0.3251E+01
   0.492  0.4244E+00  0.3255E+01
   0.502  0.4231E+00  0.3259E+01
   0.512  0.4226E+00  0.3263E+01
   0.522  0.4229E+00  0.3268E+01
   0.532  0.4238E+00  0.3272E+01
   0.542  0.4253E+00  0.3276E+01
   0.552  0.4273E+00  0.3280E+01
   0.562  0.4296E+00  0.3285E+01
   0.572  0.4319E+00  0.3289E+01
   0.582  0.4339E+00  0.3293E+01
   0.592  0.4355E+00  0.3298E+01
   0.602  0.4363E+00  0.3302E+01
   0.612  0.4362E+00  0.3306E+01
   0.622  0.4350E+00  0.3311E+01
   0.632  0.4324E+00  0.3315E+01
   0.642  0.4286E+00  0.3319E+01
   0.652  0.4234E+00  0.3324E+01
   0.662  0.4171E+00  0.3328E+01
   0.672  0.4097E+00  0.3332E+01
   0.682  0.4015E+00  0.3336E+01
   0.692  0.3929E+00  0.3340E+01
   0.702  0.3840E+00  0.3344E+01
   0.712  0.3754E+00  0.3347E+01
   0.722  0.3672E+00  0.3351E+01
   0.732  0.3599E+00  0.3355E+01
   0.742  0.3538E+00  0.3358E+01
   0.752  0.3490E+00  0.3362E+01
   0.762  0.3456E+00  0.3365E+01
   0.772  0.3439E+00  0.3369E+01
   0.782  0.3436E+00  0.3372E+01
   0.792  0.3447E+00  0.3375E+01
   0.802  0.3471E+00  0.3379E+01
   0.812  0.3503E+00  0.3382E+01
   0.822  0.3542E+00  0.3386E+01
   0.832  0.3583E+00  0.3390E+01
   0.842  0.3622E+00  0.3393E+01
   0.852  0.3656E+00  0.3397E+01
   0.862  0.3682E+00  0.3400E+01
   0.872  0.3696E+00  0.3404E+01
   0.882  0.3697E+00  0.3408E+01
   0.892  0.3684E+00  0.3412E+01
   0.902  0.3656E+00  0.3415E+01
   0.912  0.3614E+00  0.3419E+01
   0.922  0.3559E+00  0.3422E+01
   0.932  0.3495E+00  0.3426E+01
   0.942  0.3423E+00  0.3429E+01
   0.952  0.3348E+00  0.3433E+01
   0.962  0.3274E+00  0.3436E+01
   0.972  0.3203E+00  0.3439E+01
   0.982  0.3140E+00  0.3442E+01
   0.992  0.3088E+00  0.3445E+01
   1.002  0.3049E+00  0.3448E+01
   1.012  0.3025E+00  0.3451E+01
   1.022  0.3017E+00  0.3454E+01
   1.032  0.3025E+00  0.3457E+01
   1.042  0.3047E+00  0.3461E+01
   1.052  0.3082E+00  0.3464E+01
   1.062  0.3127E+00  0.3467E+01
   1.072  0.3179E+00  0.3470E+01
   1.082  0.3235E+00  0.3473E+01
   1.092  0.3291E+00  0.3476E+01
   1.102  0.3343E+00  0.3480E+01
   1.112  0.3388E+00  0.3483E+01
   1.122  0.3422E+00  0.3487E+01
   1.132  0.3443E+00  0.3490E+01
   1.142  0.3450E+00  0.3493E+01
   1.152  0.3441E+00  0.3497E+01
   1.162  0.3416E+00  0.3500E+01
   1.172  0.3376E+00  0.3504E+01
   1.182  0.3322E+00  0.3507E+01
   1.192  0.3257E+00  0.3510E+01
   1.202  0.3181E+00  0.3513E+01
   1.212  0.3099E+00  0.3517E+01
   1.222  0.3013E+00  0.3520E+01
   1.232  0.2926E+00  0.3523E+01
   1.242  0.2842E+00  0.3525E+01
   1.252  0.2763E+00  0.3528E+01
   1.262  0.2691E+00  0.3531E+01
   1.272  0.2628E+00  0.3533E+01
   1.282  0.2576E+00  0.3536E+01
   1.292  0.2535E+00  0.3539E+01
   1.302  0.2506E+00  0.3541E+01
   1.312  0.2487E+00  0.3544E+01
   1.322  0.2479E+00  0.3546E+01
   1.332  0.2479E+00  0.3549E+01
   1.342  0.2486E+00  0.3551E+01
   1.352  0.2499E+00  0.3554E+01
   1.362  0.2514E+00  0.3556E+01
   1.372  0.2531E+00  0.3559E+01
   1.382  0.2547E+00  0.3561E+01
   1.392  0.2560E+00  0.3564E+01
   1.402  0.2571E+00  0.3566E+01
   1.412  0.2577E+00  0.3569E+01
   1.422  0.2579E+00  0.3571E+01
   1.432  0.2577E+00  0.3574E+01
   1.442  0.2572E+00  0.3577E+01
   1.452  0.2564E+00  0.3579E+01
   1.462  0.2555E+00  0.3582E+01
   1.472  0.2547E+00  0.3584E+01
   1.482  0.2542E+00  0.3587E+01
   1.492  0.2542E+00  0.3589E+01
   1.502  0.2548E+00  0.3592E+01
   1.512  0.2563E+00  0.3594E+01
   1.522  0.2587E+00  0.3597E+01
   1.532  0.2623E+00  0.3600E+01
   1.542  0.2670E+00  0.3602E+01
   1.552  0.2729E+00  0.3605E+01
   1.562  0.2801E+00  0.3608E+01
   1.572  0.2885E+00  0.3611E+01
   1.582  0.2979E+00  0.3614E+01
   1.592  0.3083E+00  0.3617E+01
   1.602  0.3195E+00  0.3620E+01
   1.612  0.3314E+00  0.3623E+01
   1.622  0.3438E+00  0.3627E+01
   1.632  0.3566E+00  0.3630E+01
   1.642  0.3696E+00  0.3634E+01
   1.652  0.3826E+00  0.3638E+01
   1.662  0.3956E+00  0.3642E+01
   1.672  0.4085E+00  0.3646E+01
   1.682  0.4213E+00  0.3650E+01
   1.692  0.4341E+00  0.3654E+01
   1.702  0.4468E+00  0.3659E+01
   1.712  0.4597E+00  0.3663E+01
   1.722  0.4729E+00  0.3668E+01
   1.732  0.4865E+00  0.3673E+01
   1.742  0.5008E+00  0.3678E+01
   1.752  0.5161E+00  0.3683E+01
   1.762  0.5324E+00  0.3689E+01
   1.772  0.5501E+00  0.3694E+01
   1.782  0.5692E+00  0.3700E+01
   1.792  0.5899E+00  0.3706E+01
   1.802  0.6122E+00  0.3712E+01
   1.812  0.6361E+00  0.3718E+01
   1.822  0.6614E+00  0.3725E+01
   1.832  0.6881E+00  0.3732E+01
   1.842  0.7159E+00  0.3739E+01
   1.852  0.7445E+00  0.3746E+01
   1.862  0.7735E+00  0.3754E+01
   1.872  0.8026E+00  0.3762E+01
   1.882  0.8314E+00  0.3770E+01
   1.892  0.8594E+00  0.3779E+01
   1.902  0.8865E+00  0.3788E+01
   1.912  0.9121E+00  0.3797E+01
   1.922  0.9361E+00  0.3806E+01
   1.932  0.9582E+00  0.3816E+01
   1.942  0.9784E+00  0.3826E+01
   1.952  0.9967E+00  0.3836E+01
   1.962  0.1013E+01  0.3846E+01
   1.972  0.1027E+01  0.3856E+01
   1.982  0.1040E+01  0.3866E+01
   1.992  0.1051E+01  0.3877E+01
   2.002  0.1061E+01  0.3887E+01
   2.012  0.1070E+01  0.3898E+01
   2.022  0.1079E+01  0.3909E+01
   2.032  0.1087E+01  0.3920E+01
   2.042  0.1094E+01  0.3931E+01
   2.052  0.1101E+01  0.3942E+01
   2.062  0.1108E+01  0.3953E+01
   2.072  0.1114E+01  0.3964E+01
   2.082  0.1121E+01  0.3975E+01
   2.092  0.1126E+01  0.3986E+01
   2.102  0.1132E+01  0.3998E+01
   2.112  0.1137E+01  0.4009E+01
   2.122  0.1140E+01  0.4021E+01
   2.132  0.1143E+01  0.4032E+01
   2.142  0.1145E+01  0.4043E+01
   2.152  0.1145E+01  0.4055E+01
   2.162  0.1143E+01  0.4066E+01
   2.172  0.1141E+01  0.4078E+01
   2.182  0.1136E+01  0.4089E+01
   2.192  0.1130E+01  0.4100E+01
   2.202  0.1123E+01  0.4112E+01
   2.212  0.1114E+01  0.4123E+01
   2.222  0.1105E+01  0.4134E+01
   2.232  0.1094E+01  0.4145E+01
   2.242  0.1083E+01  0.4156E+01
   2.252  0.1072E+01  0.4166E+01
   2.262  0.1060E+01  0.4177E+01
   2.272  0.1049E+01  0.4187E+01
   2.282  0.1037E+01  0.4198E+01
   2.292  0.1027E+01  0.4208E+01
   2.302  0.1017E+01  0.4218E+01
   2.312  0.1008E+01  0.4228E+01
   2.322  0.9995E+00  0.4238E+01
   2.332  0.9923E+00  0.4248E+01
   2.342  0.9860E+00  0.4258E+01
   2.352  0.9806E+00  0.4268E+01
   2.362  0.9762E+00  0.4278E+01
   2.372  0.9727E+00  0.4287E+01
   2.382  0.9700E+00  0.4297E+01
   2.392  0.9680E+00  0.4307E+01
   2.402  0.9668E+00  0.4316E+01
   2.412  0.9661E+00  0.4326E+01
   2.422  0.9660E+00  0.4336E+01
   2.432  0.9664E+00  0.4345E+01
   2.442  0.9672E+00  0.4355E+01
   2.452  0.9684E+00  0.4365E+01
   2.462  0.9701E+00  0.4374E+01
   2.472  0.9722E+00  0.4384E+01
   2.482  0.9747E+00  0.4394E+01
   2.492  0.9776E+00  0.4404E+01
   2.502  0.9810E+00  0.4413E+01
   2.512  0.9849E+00  0.4423E+01
   2.522  0.9893E+00  0.4433E+01
   2.532  0.9942E+00  0.4443E+01
   2.542  0.9996E+00  0.4453E+01
   2.552  0.1005E+01  0.4463E+01
   2.562  0.1012E+01  0.4473E+01
   2.572  0.1018E+01  0.4484E+01
   2.582  0.1025E+01  0.4494E+01
   2.592  0.1031E+01  0.4504E+01
   2.602  0.1038E+01  0.4514E+01
   2.612  0.1044E+01  0.4525E+01
   2.622  0.1049E+01  0.4535E+01
   2.632  0.1054E+01  0.4546E+01
   2.642  0.1058E+01  0.4557E+01
   2.652  0.1061E+01  0.4567E+01
   2.662  0.1063E+01  0.4578E+01
   2.672  0.1064E+01  0.4588E+01
   2.682  0.1064E+01  0.4599E+01
   2.692  0.1062E+01  0.4610E+01
   2.702  0.1060E+01  0.4620E+01
   2.712  0.1058E+01  0.4631E+01
   2.722  0.1055E+01  0.4641E+01
   2.732  0.1051E+01  0.4652E+01
   2.742  0.1048E+01  0.4662E+01
   2.752  0.1045E+01  0.4673E+01
   2.762  0.1042E+01  0.4683E+01
   2.772  0.1040E+01  0.4694E+01
   2.782  0.1039E+01  0.4704E+01
   2.792  0.1039E+01  0.4714E+01
   2.802  0.1040E+01  0.4725E+01
   2.812  0.1041E+01  0.4735E+01
   2.822  0.1044E+01  0.4746E+01
   2.832  0.1048E+01  0.4756E+01
   2.842  0.1053E+01  0.4767E+01
   2.852  0.1058E+01  0.4777E+01
   2.862  0.1064E+01  0.4788E+01
   2.872  0.1070E+01  0.4799E+01
   2.882  0.1076E+01  0.4809E+01
   2.892  0.1082E+01  0.4820E+01
   2.902  0.1089E+01  0.4831E+01
   2.912  0.1095E+01  0.4842E+01
   2.922  0.1101E+01  0.4853E+01
   2.932  0.1106E+01  0.4864E+01
   2.942  0.1111E+01  0.4875E+01
   2.952  0.1115E+01  0.4886E+01
   2.962  0.1119E+01  0.4898E+01
   2.972  0.1123E+01  0.4909E+01
   2.982  0.1125E+01  0.4920E+01
   2.992  0.1128E+01  0.4931E+01
   3.002  0.1130E+01  0.4943E+01
   3.012  0.1131E+01  0.4954E+01
   3.022  0.1133E+01  0.4965E+01
   3.032  0.1134E+01  0.4977E+01
   3.042  0.1135E+01  0.4988E+01
   3.052  0.1136E+01  0.4999E+01
   3.062  0.1138E+01  0.5011E+01
   3.072  0.1140E+01  0.5022E+01
   3.082  0.1143E+01  0.5033E+01
   3.092  0.1146E+01  0.5045E+01
   3.102  0.1151E+01  0.5056E+01
   3.112  0.1156E+01  0.5068E+01
   3.122  0.1163E+01  0.5080E+01
   3.132  0.1171E+01  0.5091E+01
   3.142  0.1181E+01  0.5103E+01
   3.152  0.1192E+01  0.5115E+01
   3.162  0.1204E+01  0.5127E+01
   3.172  0.1219E+01  0.5139E+01
   3.182  0.1234E+01  0.5152E+01
   3.192  0.1252E+01  0.5164E+01
   3.202  0.1270E+01  0.5177E+01
   3.212  0.1290E+01  0.5190E+01
   3.222  0.1310E+01  0.5203E+01
   3.232  0.1331E+01  0.5216E+01
   3.242  0.1353E+01  0.5230E+01
   3.252  0.1375E+01  0.5243E+01
   3.262  0.1397E+01  0.5257E+01
   3.272  0.1418E+01  0.5272E+01
   3.282  0.1439E+01  0.5286E+01
   3.292  0.1458E+01  0.5301E+01
   3.302  0.1476E+01  0.5315E+01
   3.312  0.1491E+01  0.5330E+01
   3.322  0.1505E+01  0.5345E+01
   3.332  0.1517E+01  0.5360E+01
   3.342  0.1526E+01  0.5376E+01
   3.352  0.1532E+01  0.5391E+01
   3.362  0.1535E+01  0.5406E+01
   3.372  0.1536E+01  0.5422E+01
   3.382  0.1534E+01  0.5437E+01
   3.392  0.1529E+01  0.5452E+01
   3.402  0.1521E+01  0.5468E+01
   3.412  0.1510E+01  0.5483E+01
   3.422  0.1498E+01  0.5498E+01
   3.432  0.1483E+01  0.5512E+01
   3.442  0.1466E+01  0.5527E+01
   3.452  0.1448E+01  0.5542E+01
   3.462  0.1429E+01  0.5556E+01
   3.472  0.1409E+01  0.5570E+01
   3.482  0.1389E+01  0.5584E+01
   3.492  0.1370E+01  0.5598E+01
   3.502  0.1352E+01  0.5611E+01
   3.512  0.1335E+01  0.5624E+01
   3.522  0.1321E+01  0.5638E+01
   3.532  0.1309E+01  0.5651E+01
   3.542  0.1301E+01  0.5664E+01
   3.552  0.1296E+01  0.5677E+01
   3.562  0.1295E+01  0.5690E+01
   3.572  0.1298E+01  0.5703E+01
   3.582  0.1306E+01  0.5716E+01
   3.592  0.1317E+01  0.5729E+01
   3.602  0.1332E+01  0.5742E+01
   3.612  0.1351E+01  0.5756E+01
   3.622  0.1372E+01  0.5769E+01
   3.632  0.1395E+01  0.5783E+01
   3.642  0.1420E+01  0.5798E+01
   3.652  0.1444E+01  0.5812E+01
   3.662  0.1469E+01  0.5827E+01
   3.672  0.1492E+01  0.5842E+01
   3.682  0.1512E+01  0.5857E+01
   3.692  0.1529E+01  0.5872E+01
   3.702  0.1543E+01  0.5887E+01
   3.712  0.1552E+01  0.5903E+01
   3.722  0.1557E+01  0.5919E+01
   3.732  0.1557E+01  0.5934E+01
   3.742  0.1551E+01  0.5950E+01
   3.752  0.1541E+01  0.5965E+01
   3.762  0.1527E+01  0.5980E+01
   3.772  0.1509E+01  0.5995E+01
   3.782  0.1487E+01  0.6010E+01
   3.792  0.1463E+01  0.6025E+01
   3.802  0.1437E+01  0.6039E+01
   3.812  0.1410E+01  0.6053E+01
   3.822  0.1382E+01  0.6067E+01
   3.832  0.1356E+01  0.6081E+01
   3.842  0.1331E+01  0.6094E+01
   3.852  0.1308E+01  0.6107E+01
   3.862  0.1287E+01  0.6120E+01
   3.872  0.1270E+01  0.6133E+01
   3.882  0.1256E+01  0.6145E+01
   3.892  0.1246E+01  0.6158E+01
   3.902  0.1239E+01  0.6170E+01
   3.912  0.1236E+01  0.6183E+01
   3.922  0.1237E+01  0.6195E+01
   3.932  0.1240E+01  0.6207E+01
   3.942  0.1247E+01  0.6220E+01
   3.952  0.1255E+01  0.6232E+01
   3.962  0.1266E+01  0.6245E+01
   3.972  0.1277E+01  0.6258E+01
   3.982  0.1290E+01  0.6271E+01
   3.992  0.1302E+01  0.6284E+01
   4.002  0.1315E+01  0.6297E+01
   4.012  0.1326E+01  0.6310E+01
   4.022  0.1337E+01  0.6323E+01
   4.032  0.1347E+01  0.6337E+01
   4.042  0.1354E+01  0.6350E+01
   4.052  0.1360E+01  0.6364E+01
   4.062  0.1364E+01  0.6378E+01
   4.072  0.1366E+01  0.6391E+01
   4.082  0.1366E+01  0.6405E+01
   4.092  0.1365E+01  0.6419E+01
   4.102  0.1361E+01  0.6432E+01
   4.112  0.1356E+01  0.6446E+01
   4.122  0.1349E+01  0.6459E+01
   4.132  0.1341E+01  0.6473E+01
   4.142  0.1332E+01  0.6486E+01
   4.152  0.1323E+01  0.6499E+01
   4.162  0.1313E+01  0.6512E+01
   4.172  0.1302E+01  0.6525E+01
   4.182  0.1292E+01  0.6538E+01
   4.192  0.1281E+01  0.6551E+01
   4.202  0.1271E+01  0.6564E+01
   4.212  0.1262E+01  0.6576E+01
   4.222  0.1253E+01  0.6589E+01
   4.232  0.1246E+01  0.6601E+01
   4.242  0.1239E+01  0.6614E+01
   4.252  0.1234E+01  0.6626E+01
   4.262  0.1230E+01  0.6639E+01
   4.272  0.1227E+01  0.6651E+01
   4.282  0.1225E+01  0.6663E+01
   4.292  0.1225E+01  0.6675E+01
   4.302  0.1225E+01  0.6688E+01
   4.312  0.1227E+01  0.6700E+01
   4.322  0.1229E+01  0.6712E+01
   4.332  0.1232E+01  0.6724E+01
   4.342  0.1235E+01  0.6737E+01
   4.352  0.1238E+01  0.6749E+01
   4.362  0.1240E+01  0.6762E+01
   4.372  0.1242E+01  0.6774E+01
   4.382  0.1243E+01  0.6786E+01
   4.392  0.1243E+01  0.6799E+01
   4.402  0.1242E+01  0.6811E+01
   4.412  0.1239E+01  0.6824E+01
   4.422  0.1235E+01  0.6836E+01
   4.432  0.1230E+01  0.6848E+01
   4.442  0.1224E+01  0.6861E+01
   4.452  0.1217E+01  0.6873E+01
   4.462  0.1209E+01  0.6885E+01
   4.472  0.1201E+01  0.6897E+01
   4.482  0.1192E+01  0.6909E+01
   4.492  0.1184E+01  0.6921E+01
   4.502  0.1176E+01  0.6932E+01
   4.512  0.1169E+01  0.6944E+01
   4.522  0.1163E+01  0.6956E+01
   4.532  0.1158E+01  0.6967E+01
   4.542  0.1154E+01  0.6979E+01
   4.552  0.1152E+01  0.6990E+01
   4.562  0.1152E+01  0.7002E+01
   4.572  0.1153E+01  0.7013E+01
   4.582  0.1155E+01  0.7025E+01
   4.592  0.1158E+01  0.7036E+01
   4.602  0.1163E+01  0.7048E+01
   4.612  0.1167E+01  0.7060E+01
   4.622  0.1172E+01  0.7071E+01
   4.632  0.1177E+01  0.7083E+01
   4.642  0.1182E+01  0.7095E+01
   4.652  0.1186E+01  0.7107E+01
   4.662  0.1190E+01  0.7119E+01
   4.672  0.1192E+01  0.7131E+01
   4.682  0.1193E+01  0.7143E+01
   4.692  0.1193E+01  0.7155E+01
   4.702  0.1192E+01  0.7167E+01
   4.712  0.1189E+01  0.7178E+01
   4.722  0.1185E+01  0.7190E+01
   4.732  0.1180E+01  0.7202E+01
   4.742  0.1175E+01  0.7214E+01
   4.752  0.1168E+01  0.7225E+01
   4.762  0.1161E+01  0.7237E+01
   4.772  0.1154E+01  0.7249E+01
   4.782  0.1147E+01  0.7260E+01
   4.792  0.1140E+01  0.7272E+01
   4.802  0.1132E+01  0.7283E+01
   4.812  0.1126E+01  0.7294E+01
   4.822  0.1119E+01  0.7305E+01
   4.832  0.1113E+01  0.7316E+01
   4.842  0.1108E+01  0.7328E+01
   4.852  0.1102E+01  0.7339E+01
   4.862  0.1097E+01  0.7349E+01
   4.872  0.1092E+01  0.7360E+01
   4.882  0.1086E+01  0.7371E+01
   4.892  0.1080E+01  0.7382E+01
   4.902  0.1074E+01  0.7393E+01
   4.912  0.1066E+01  0.7403E+01
   4.922  0.1058E+01  0.7414E+01
   4.932  0.1049E+01  0.7425E+01
   4.942  0.1039E+01  0.7435E+01
   4.952  0.1027E+01  0.7445E+01
   4.962  0.1015E+01  0.7455E+01
   4.972  0.1002E+01  0.7465E+01
   4.982  0.9877E+00  0.7475E+01
   4.992  0.9730E+00  0.7485E+01
   5.002  0.9579E+00  0.7495E+01
   5.012  0.9425E+00  0.7504E+01
   5.022  0.9270E+00  0.7513E+01
   5.032  0.9115E+00  0.7522E+01
   5.042  0.8963E+00  0.7531E+01
   5.052  0.8813E+00  0.7540E+01
   5.062  0.8667E+00  0.7549E+01
   5.072  0.8523E+00  0.7557E+01
   5.082  0.8383E+00  0.7566E+01
   5.092  0.8246E+00  0.7574E+01
   5.102  0.8111E+00  0.7582E+01
   5.112  0.7978E+00  0.7590E+01
   5.122  0.7847E+00  0.7598E+01
   5.132  0.7715E+00  0.7606E+01
   5.142  0.7585E+00  0.7613E+01
   5.152  0.7455E+00  0.7621E+01
   5.162  0.7325E+00  0.7628E+01
   5.172  0.7197E+00  0.7635E+01
   5.182  0.7071E+00  0.7642E+01
   5.192  0.6947E+00  0.7649E+01
   5.202  0.6828E+00  0.7656E+01
   5.212  0.6713E+00  0.7663E+01
   5.222  0.6604E+00  0.7669E+01
   5.232  0.6501E+00  0.7676E+01
   5.242  0.6405E+00  0.7682E+01
   5.252  0.6316E+00  0.7689E+01
   5.262  0.6235E+00  0.7695E+01
   5.272  0.6161E+00  0.7701E+01
   5.282  0.6094E+00  0.7707E+01
   5.292  0.6033E+00  0.7713E+01
   5.302  0.5978E+00  0.7719E+01
   5.312  0.5926E+00  0.7725E+01
   5.322  0.5877E+00  0.7731E+01
   5.332  0.5829E+00  0.7737E+01
   5.342  0.5782E+00  0.7742E+01
   5.352  0.5733E+00  0.7748E+01
   5.362  0.5682E+00  0.7754E+01
   5.372  0.5628E+00  0.7760E+01
   5.382  0.5569E+00  0.7765E+01
   5.392  0.5505E+00  0.7771E+01
   5.402  0.5436E+00  0.7776E+01
   5.412  0.5361E+00  0.7781E+01
   5.422  0.5281E+00  0.7787E+01
   5.432  0.5195E+00  0.7792E+01
   5.442  0.5105E+00  0.7797E+01
   5.452  0.5011E+00  0.7802E+01
   5.462  0.4914E+00  0.7807E+01
   5.472  0.4815E+00  0.7812E+01
   5.482  0.4715E+00  0.7816E+01
   5.492  0.4615E+00  0.7821E+01
   5.502  0.4515E+00  0.7826E+01
   5.512  0.4418E+00  0.7830E+01
   5.522  0.4323E+00  0.7834E+01
   5.532  0.4231E+00  0.7839E+01
   5.542  0.4143E+00  0.7843E+01
   5.552  0.4057E+00  0.7847E+01
   5.562  0.3976E+00  0.7851E+01
   5.572  0.3897E+00  0.7855E+01
   5.582  0.3821E+00  0.7858E+01
   5.592  0.3748E+00  0.7862E+01
   5.602  0.3677E+00  0.7866E+01
   5.612  0.3607E+00  0.7869E+01
   5.622  0.3539E+00  0.7873E+01
   5.632  0.3473E+00  0.7876E+01
   5.642  0.3408E+00  0.7880E+01
   5.652  0.3346E+00  0.7883E+01
   5.662  0.3285E+00  0.7887E+01
   5.672  0.3227E+00  0.7890E+01
   5.682  0.3172E+00  0.7893E+01
   5.692  0.3120E+00  0.7896E+01
   5.702  0.3073E+00  0.7899E+01
   5.712  0.3030E+00  0.7902E+01
   5.722  0.2993E+00  0.7905E+01
   5.732  0.2960E+00  0.7908E+01
   5.742  0.2932E+00  0.7911E+01
   5.752  0.2908E+00  0.7914E+01
   5.762  0.2889E+00  0.7917E+01
   5.772  0.2872E+00  0.7920E+01
   5.782  0.2858E+00  0.7923E+01
   5.792  0.2845E+00  0.7925E+01
   5.802  0.2832E+00  0.7928E+01
   5.812  0.2818E+00  0.7931E+01
   5.822  0.2802E+00  0.7934E+01
   5.832  0.2782E+00  0.7937E+01
   5.842  0.2758E+00  0.7939E+01
   5.852  0.2729E+00  0.7942E+01
   5.862  0.2693E+00  0.7945E+01
   5.872  0.2652E+00  0.7947E+01
   5.882  0.2605E+00  0.7950E+01
   5.892  0.2552E+00  0.7953E+01
   5.902  0.2494E+00  0.7955E+01
   5.912  0.2430E+00  0.7958E+01
   5.922  0.2362E+00  0.7960E+01
   5.932  0.2290E+00  0.7962E+01
   5.942  0.2214E+00  0.7964E+01
   5.952  0.2137E+00  0.7967E+01
   5.962  0.2058E+00  0.7969E+01
   5.972  0.1978E+00  0.7971E+01
   5.982  0.1898E+00  0.7972E+01
   5.992  0.1819E+00  0.7974E+01
   6.002  0.1740E+00  0.7976E+01
   6.012  0.1662E+00  0.7978E+01
   6.022  0.1586E+00  0.7979E+01
   6.032  0.1511E+00  0.7981E+01
   6.042  0.1438E+00  0.7982E+01
   6.052  0.1367E+00  0.7984E+01
   6.062  0.1298E+00  0.7985E+01
   6.072  0.1230E+00  0.7986E+01
   6.082  0.1164E+00  0.7987E+01
   6.092  0.1100E+00  0.7988E+01
   6.102  0.1038E+00  0.7989E+01
   6.112  0.9766E-01  0.7990E+01
   6.122  0.9169E-01  0.7991E+01
   6.132  0.8586E-01  0.7992E+01
   6.142  0.8016E-01  0.7993E+01
   6.152  0.7459E-01  0.7994E+01
   6.162  0.6916E-01  0.7994E+01
   6.172  0.6387E-01  0.7995E+01
   6.182  0.5873E-01  0.7996E+01
   6.192  0.5375E-01  0.7996E+01
   6.202  0.4894E-01  0.7997E+01
   6.212  0.4432E-01  0.7997E+01
   6.222  0.3990E-01  0.7998E+01
   6.232  0.3571E-01  0.7998E+01
   6.242  0.3175E-01  0.7998E+01
   6.252  0.2803E-01  0.7998E+01
   6.262  0.2458E-01  0.7999E+01
   6.272  0.2139E-01  0.7999E+01
   6.282  0.1848E-01  0.7999E+01
   6.292  0.1584E-01  0.7999E+01
   6.302  0.1346E-01  0.7999E+01
   6.312  0.1135E-01  0.8000E+01
   6.322  0.9492E-02  0.8000E+01
   6.332  0.7868E-02  0.8000E+01
   6.342  0.6467E-02  0.8000E+01
   6.352  0.5270E-02  0.8000E+01
   6.362  0.4258E-02  0.8000E+01
   6.372  0.3414E-02  0.8000E+01
   6.382  0.2718E-02  0.8000E+01
   6.392  0.2153E-02  0.8000E+01
   6.402  0.1702E-02  0.8000E+01
   6.412  0.1350E-02  0.8000E+01
   6.422  0.1085E-02  0.8000E+01
   6.432  0.8969E-03  0.8000E+01
   6.442  0.7764E-03  0.8000E+01
   6.452  0.7182E-03  0.8000E+01
   6.462  0.7190E-03  0.8000E+01
   6.472  0.7782E-03  0.8000E+01
   6.482  0.8974E-03  0.8000E+01
   6.492  0.1081E-02  0.8000E+01
   6.502  0.1335E-02  0.8000E+01
   6.512  0.1669E-02  0.8000E+01
   6.522  0.2094E-02  0.8000E+01
   6.532  0.2623E-02  0.8000E+01
   6.542  0.3272E-02  0.8000E+01
   6.552  0.4057E-02  0.8000E+01
   6.562  0.4999E-02  0.8000E+01
   6.572  0.6118E-02  0.8000E+01
   6.582  0.7436E-02  0.8000E+01
   6.592  0.8977E-02  0.8000E+01
   6.602  0.1076E-01  0.8001E+01
   6.612  0.1282E-01  0.8001E+01
   6.622  0.1518E-01  0.8001E+01
   6.632  0.1785E-01  0.8001E+01
   6.642  0.2086E-01  0.8001E+01
   6.652  0.2423E-01  0.8001E+01
   6.662  0.2798E-01  0.8002E+01
   6.672  0.3212E-01  0.8002E+01
   6.682  0.3665E-01  0.8002E+01
   6.692  0.4159E-01  0.8003E+01
   6.702  0.4692E-01  0.8003E+01
   6.712  0.5263E-01  0.8004E+01
   6.722  0.5870E-01  0.8004E+01
   6.732  0.6512E-01  0.8005E+01
   6.742  0.7185E-01  0.8006E+01
   6.752  0.7885E-01  0.8007E+01
   6.762  0.8609E-01  0.8007E+01
   6.772  0.9352E-01  0.8008E+01
   6.782  0.1011E+00  0.8009E+01
   6.792  0.1088E+00  0.8010E+01
   6.802  0.1166E+00  0.8012E+01
   6.812  0.1244E+00  0.8013E+01
   6.822  0.1322E+00  0.8014E+01
   6.832  0.1400E+00  0.8016E+01
   6.842  0.1479E+00  0.8017E+01
   6.852  0.1557E+00  0.8019E+01
   6.862  0.1636E+00  0.8020E+01
   6.872  0.1715E+00  0.8022E+01
   6.882  0.1794E+00  0.8024E+01
   6.892  0.1874E+00  0.8026E+01
   6.902  0.1954E+00  0.8028E+01
   6.912  0.2036E+00  0.8030E+01
   6.922  0.2119E+00  0.8032E+01
   6.932  0.2202E+00  0.8034E+01
   6.942  0.2287E+00  0.8036E+01
   6.952  0.2373E+00  0.8039E+01
   6.962  0.2460E+00  0.8041E+01
   6.972  0.2547E+00  0.8044E+01
   6.982  0.2635E+00  0.8046E+01
   6.992  0.2722E+00  0.8049E+01
   7.002  0.2809E+00  0.8052E+01
   7.012  0.2896E+00  0.8055E+01
   7.022  0.2981E+00  0.8058E+01
   7.032  0.3065E+00  0.8061E+01
   7.042  0.3147E+00  0.8064E+01
   7.052  0.3228E+00  0.8067E+01
   7.062  0.3307E+00  0.8070E+01
   7.072  0.3384E+00  0.8074E+01
   7.082  0.3459E+00  0.8077E+01
   7.092  0.3532E+00  0.8081E+01
   7.102  0.3605E+00  0.8084E+01
   7.112  0.3675E+00  0.8088E+01
   7.122  0.3745E+00  0.8092E+01
   7.132  0.3814E+00  0.8096E+01
   7.142  0.3882E+00  0.8100E+01
   7.152  0.3949E+00  0.8103E+01
   7.162  0.4015E+00  0.8108E+01
   7.172  0.4080E+00  0.8112E+01
   7.182  0.4145E+00  0.8116E+01
   7.192  0.4207E+00  0.8120E+01
   7.202  0.4268E+00  0.8124E+01
   7.212  0.4327E+00  0.8129E+01
   7.222  0.4382E+00  0.8133E+01
   7.232  0.4434E+00  0.8137E+01
   7.242  0.4482E+00  0.8142E+01
   7.252  0.4526E+00  0.8146E+01
   7.262  0.4564E+00  0.8151E+01
   7.272  0.4598E+00  0.8156E+01
   7.282  0.4625E+00  0.8160E+01
   7.292  0.4647E+00  0.8165E+01
   7.302  0.4663E+00  0.8169E+01
   7.312  0.4673E+00  0.8174E+01
   7.322  0.4678E+00  0.8179E+01
   7.332  0.4678E+00  0.8183E+01
   7.342  0.4673E+00  0.8188E+01
   7.352  0.4666E+00  0.8193E+01
   7.362  0.4655E+00  0.8197E+01
   7.372  0.4643E+00  0.8202E+01
   7.382  0.4630E+00  0.8207E+01
   7.392  0.4618E+00  0.8211E+01
   7.402  0.4608E+00  0.8216E+01
   7.412  0.4601E+00  0.8221E+01
   7.422  0.4599E+00  0.8225E+01
   7.432  0.4603E+00  0.8230E+01
   7.442  0.4614E+00  0.8234E+01
   7.452  0.4635E+00  0.8239E+01
   7.462  0.4666E+00  0.8244E+01
   7.472  0.4708E+00  0.8248E+01
   7.482  0.4762E+00  0.8253E+01
   7.492  0.4830E+00  0.8258E+01
   7.502  0.4910E+00  0.8263E+01
   7.512  0.5004E+00  0.8268E+01
   7.522  0.5109E+00  0.8273E+01
   7.532  0.5227E+00  0.8278E+01
   7.542  0.5354E+00  0.8284E+01
   7.552  0.5489E+00  0.8289E+01
   7.562  0.5630E+00  0.8295E+01
   7.572  0.5775E+00  0.8300E+01
   7.582  0.5921E+00  0.8306E+01
   7.592  0.6066E+00  0.8312E+01
   7.602  0.6207E+00  0.8319E+01
   7.612  0.6343E+00  0.8325E+01
   7.622  0.6471E+00  0.8332E+01
   7.632  0.6589E+00  0.8338E+01
   7.642  0.6698E+00  0.8345E+01
   7.652  0.6795E+00  0.8352E+01
   7.662  0.6880E+00  0.8358E+01
   7.672  0.6955E+00  0.8365E+01
   7.682  0.7019E+00  0.8372E+01
   7.692  0.7074E+00  0.8380E+01
   7.702  0.7121E+00  0.8387E+01
   7.712  0.7162E+00  0.8394E+01
   7.722  0.7200E+00  0.8401E+01
   7.732  0.7236E+00  0.8408E+01
   7.742  0.7273E+00  0.8416E+01
   7.752  0.7312E+00  0.8423E+01
   7.762  0.7357E+00  0.8430E+01
   7.772  0.7408E+00  0.8438E+01
   7.782  0.7468E+00  0.8445E+01
   7.792  0.7537E+00  0.8453E+01
   7.802  0.7618E+00  0.8460E+01
   7.812  0.7709E+00  0.8468E+01
   7.822  0.7812E+00  0.8476E+01
   7.832  0.7925E+00  0.8484E+01
   7.842  0.8048E+00  0.8492E+01
   7.852  0.8179E+00  0.8500E+01
   7.862  0.8317E+00  0.8508E+01
   7.872  0.8460E+00  0.8517E+01
   7.882  0.8606E+00  0.8525E+01
   7.892  0.8751E+00  0.8534E+01
   7.902  0.8894E+00  0.8543E+01
   7.912  0.9031E+00  0.8552E+01
   7.922  0.9161E+00  0.8561E+01
   7.932  0.9279E+00  0.8570E+01
   7.942  0.9386E+00  0.8580E+01
   7.952  0.9477E+00  0.8589E+01
   7.962  0.9553E+00  0.8599E+01
   7.972  0.9611E+00  0.8608E+01
   7.982  0.9652E+00  0.8618E+01
   7.992  0.9676E+00  0.8628E+01
   8.002  0.9684E+00  0.8637E+01
   8.012  0.9677E+00  0.8647E+01
   8.022  0.9656E+00  0.8657E+01
   8.032  0.9626E+00  0.8666E+01
   8.042  0.9588E+00  0.8676E+01
   8.052  0.9547E+00  0.8686E+01
   8.062  0.9505E+00  0.8695E+01
   8.072  0.9467E+00  0.8704E+01
   8.082  0.9437E+00  0.8714E+01
   8.092  0.9418E+00  0.8723E+01
   8.102  0.9415E+00  0.8733E+01
   8.112  0.9429E+00  0.8742E+01
   8.122  0.9465E+00  0.8752E+01
   8.132  0.9524E+00  0.8761E+01
   8.142  0.9607E+00  0.8771E+01
   8.152  0.9716E+00  0.8780E+01
   8.162  0.9852E+00  0.8790E+01
   8.172  0.1001E+01  0.8800E+01
   8.182  0.1020E+01  0.8811E+01
   8.192  0.1041E+01  0.8821E+01
   8.202  0.1063E+01  0.8832E+01
   8.212  0.1088E+01  0.8842E+01
   8.222  0.1114E+01  0.8854E+01
   8.232  0.1141E+01  0.8865E+01
   8.242  0.1169E+01  0.8877E+01
   8.252  0.1197E+01  0.8889E+01
   8.262  0.1225E+01  0.8901E+01
   8.272  0.1252E+01  0.8913E+01
   8.282  0.1279E+01  0.8926E+01
   8.292  0.1304E+01  0.8939E+01
   8.302  0.1328E+01  0.8953E+01
   8.312  0.1349E+01  0.8966E+01
   8.322  0.1369E+01  0.8980E+01
   8.332  0.1386E+01  0.8994E+01
   8.342  0.1402E+01  0.9008E+01
   8.352  0.1415E+01  0.9022E+01
   8.362  0.1426E+01  0.9036E+01
   8.372  0.1436E+01  0.9050E+01
   8.382  0.1444E+01  0.9065E+01
   8.392  0.1451E+01  0.9079E+01
   8.402  0.1457E+01  0.9094E+01
   8.412  0.1463E+01  0.9109E+01
   8.422  0.1469E+01  0.9123E+01
   8.432  0.1476E+01  0.9138E+01
   8.442  0.1483E+01  0.9153E+01
   8.452  0.1492E+01  0.9168E+01
   8.462  0.1502E+01  0.9183E+01
   8.472  0.1512E+01  0.9198E+01
   8.482  0.1524E+01  0.9213E+01
   8.492  0.1537E+01  0.9228E+01
   8.502  0.1551E+01  0.9244E+01
   8.512  0.1565E+01  0.9260E+01
   8.522  0.1579E+01  0.9275E+01
   8.532  0.1592E+01  0.9291E+01
   8.542  0.1605E+01  0.9307E+01
   8.552  0.1616E+01  0.9324E+01
   8.562  0.1625E+01  0.9340E+01
   8.572  0.1632E+01  0.9356E+01
   8.582  0.1636E+01  0.9373E+01
   8.592  0.1638E+01  0.9389E+01
   8.602  0.1637E+01  0.9405E+01
   8.612  0.1633E+01  0.9422E+01
   8.622  0.1626E+01  0.9438E+01
   8.632  0.1616E+01  0.9454E+01
   8.642  0.1604E+01  0.9470E+01
   8.652  0.1590E+01  0.9486E+01
   8.662  0.1573E+01  0.9502E+01
   8.672  0.1555E+01  0.9517E+01
   8.682  0.1536E+01  0.9533E+01
   8.692  0.1515E+01  0.9548E+01
   8.702  0.1494E+01  0.9563E+01
   8.712  0.1473E+01  0.9577E+01
   8.722  0.1452E+01  0.9592E+01
   8.732  0.1431E+01  0.9606E+01
   8.742  0.1411E+01  0.9620E+01
   8.752  0.1392E+01  0.9634E+01
   8.762  0.1374E+01  0.9648E+01
   8.772  0.1357E+01  0.9662E+01
   8.782  0.1342E+01  0.9675E+01
   8.792  0.1327E+01  0.9688E+01
   8.802  0.1314E+01  0.9701E+01
   8.812  0.1302E+01  0.9714E+01
   8.822  0.1292E+01  0.9727E+01
   8.832  0.1283E+01  0.9740E+01
   8.842  0.1274E+01  0.9753E+01
   8.852  0.1267E+01  0.9766E+01
   8.862  0.1260E+01  0.9778E+01
   8.872  0.1253E+01  0.9791E+01
   8.882  0.1248E+01  0.9803E+01
   8.892  0.1242E+01  0.9816E+01
   8.902  0.1236E+01  0.9828E+01
   8.912  0.1231E+01  0.9840E+01
   8.922  0.1225E+01  0.9853E+01
   8.932  0.1219E+01  0.9865E+01
   8.942  0.1212E+01  0.9877E+01
   8.952  0.1205E+01  0.9889E+01
   8.962  0.1197E+01  0.9901E+01
   8.972  0.1189E+01  0.9913E+01
   8.982  0.1179E+01  0.9925E+01
   8.992  0.1169E+01  0.9936E+01
   9.002  0.1157E+01  0.9948E+01
   9.012  0.1145E+01  0.9959E+01
   9.022  0.1131E+01  0.9971E+01
   9.032  0.1117E+01  0.9982E+01
   9.042  0.1101E+01  0.9993E+01
   9.052  0.1084E+01  0.1000E+02
   9.062  0.1066E+01  0.1001E+02
   9.072  0.1048E+01  0.1002E+02
   9.082  0.1029E+01  0.1004E+02
   9.092  0.1011E+01  0.1005E+02
   9.102  0.9926E+00  0.1006E+02
   9.112  0.9751E+00  0.1006E+02
   9.122  0.9588E+00  0.1007E+02
   9.132  0.9444E+00  0.1008E+02
   9.142  0.9322E+00  0.1009E+02
   9.152  0.9229E+00  0.1010E+02
   9.162  0.9169E+00  0.1011E+02
   9.172  0.9146E+00  0.1012E+02
   9.182  0.9165E+00  0.1013E+02
   9.192  0.9228E+00  0.1014E+02
   9.202  0.9337E+00  0.1015E+02
   9.212  0.9493E+00  0.1016E+02
   9.222  0.9697E+00  0.1017E+02
   9.232  0.9947E+00  0.1018E+02
   9.242  0.1024E+01  0.1019E+02
   9.252  0.1058E+01  0.1020E+02
   9.262  0.1095E+01  0.1021E+02
   9.272  0.1136E+01  0.1022E+02
   9.282  0.1180E+01  0.1023E+02
   9.292  0.1226E+01  0.1024E+02
   9.302  0.1275E+01  0.1026E+02
   9.312  0.1325E+01  0.1027E+02
   9.322  0.1376E+01  0.1028E+02
   9.332  0.1428E+01  0.1030E+02
   9.342  0.1481E+01  0.1031E+02
   9.352  0.1534E+01  0.1033E+02
   9.362  0.1586E+01  0.1034E+02
   9.372  0.1639E+01  0.1036E+02
   9.382  0.1690E+01  0.1038E+02
   9.392  0.1740E+01  0.1040E+02
   9.402  0.1789E+01  0.1041E+02
   9.412  0.1836E+01  0.1043E+02
   9.422  0.1882E+01  0.1045E+02
   9.432  0.1925E+01  0.1047E+02
   9.442  0.1965E+01  0.1049E+02
   9.452  0.2001E+01  0.1051E+02
   9.462  0.2035E+01  0.1053E+02
   9.472  0.2064E+01  0.1055E+02
   9.482  0.2089E+01  0.1057E+02
   9.492  0.2109E+01  0.1059E+02
   9.502  0.2124E+01  0.1061E+02
   9.512  0.2134E+01  0.1064E+02
   9.522  0.2139E+01  0.1066E+02
   9.532  0.2138E+01  0.1068E+02
   9.542  0.2132E+01  0.1070E+02
   9.552  0.2121E+01  0.1072E+02
   9.562  0.2106E+01  0.1074E+02
   9.572  0.2085E+01  0.1076E+02
   9.582  0.2061E+01  0.1078E+02
   9.592  0.2033E+01  0.1080E+02
   9.602  0.2002E+01  0.1082E+02
   9.612  0.1969E+01  0.1084E+02
   9.622  0.1934E+01  0.1086E+02
   9.632  0.1899E+01  0.1088E+02
   9.642  0.1863E+01  0.1090E+02
   9.652  0.1827E+01  0.1092E+02
   9.662  0.1793E+01  0.1094E+02
   9.672  0.1761E+01  0.1095E+02
   9.682  0.1731E+01  0.1097E+02
   9.692  0.1704E+01  0.1099E+02
   9.702  0.1681E+01  0.1100E+02
   9.712  0.1662E+01  0.1102E+02
   9.722  0.1648E+01  0.1104E+02
   9.732  0.1637E+01  0.1105E+02
   9.742  0.1631E+01  0.1107E+02
   9.752  0.1629E+01  0.1109E+02
   9.762  0.1630E+01  0.1110E+02
   9.772  0.1635E+01  0.1112E+02
   9.782  0.1643E+01  0.1114E+02
   9.792  0.1652E+01  0.1115E+02
   9.802  0.1663E+01  0.1117E+02
   9.812  0.1675E+01  0.1119E+02
   9.822  0.1686E+01  0.1120E+02
   9.832  0.1697E+01  0.1122E+02
   9.842  0.1706E+01  0.1124E+02
   9.852  0.1713E+01  0.1125E+02
   9.862  0.1718E+01  0.1127E+02
   9.872  0.1720E+01  0.1129E+02
   9.882  0.1718E+01  0.1131E+02
   9.892  0.1714E+01  0.1132E+02
   9.902  0.1706E+01  0.1134E+02
   9.912  0.1695E+01  0.1136E+02
   9.922  0.1681E+01  0.1137E+02
   9.932  0.1664E+01  0.1139E+02
   9.942  0.1645E+01  0.1141E+02
   9.952  0.1624E+01  0.1142E+02
   9.962  0.1602E+01  0.1144E+02
   9.972  0.1579E+01  0.1145E+02
   9.982  0.1555E+01  0.1147E+02
   9.992  0.1530E+01  0.1149E+02
  10.002  0.1506E+01  0.1150E+02
  10.012  0.1482E+01  0.1152E+02
  10.022  0.1460E+01  0.1153E+02
  10.032  0.1438E+01  0.1154E+02
  10.042  0.1417E+01  0.1156E+02
  10.052  0.1397E+01  0.1157E+02
  10.062  0.1379E+01  0.1159E+02
  10.072  0.1362E+01  0.1160E+02
  10.082  0.1346E+01  0.1161E+02
  10.092  0.1331E+01  0.1163E+02
  10.102  0.1318E+01  0.1164E+02
  10.112  0.1306E+01  0.1165E+02
  10.122  0.1295E+01  0.1167E+02
  10.132  0.1285E+01  0.1168E+02
  10.142  0.1275E+01  0.1169E+02
  10.152  0.1267E+01  0.1170E+02
  10.162  0.1259E+01  0.1172E+02
  10.172  0.1252E+01  0.1173E+02
  10.182  0.1246E+01  0.1174E+02
  10.192  0.1241E+01  0.1175E+02
  10.202  0.1237E+01  0.1177E+02
  10.212  0.1234E+01  0.1178E+02
  10.222  0.1232E+01  0.1179E+02
  10.232  0.1232E+01  0.1180E+02
  10.242  0.1233E+01  0.1182E+02
  10.252  0.1235E+01  0.1183E+02
  10.262  0.1240E+01  0.1184E+02
  10.272  0.1246E+01  0.1185E+02
  10.282  0.1254E+01  0.1187E+02
  10.292  0.1264E+01  0.1188E+02
  10.302  0.1276E+01  0.1189E+02
  10.312  0.1290E+01  0.1190E+02
  10.322  0.1305E+01  0.1192E+02
  10.332  0.1321E+01  0.1193E+02
  10.342  0.1339E+01  0.1194E+02
  10.352  0.1357E+01  0.1196E+02
  10.362  0.1376E+01  0.1197E+02
  10.372  0.1395E+01  0.1198E+02
  10.382  0.1414E+01  0.1200E+02
  10.392  0.1432E+01  0.1201E+02
  10.402  0.1448E+01  0.1203E+02
  10.412  0.1463E+01  0.1204E+02
  10.422  0.1475E+01  0.1206E+02
  10.432  0.1484E+01  0.1207E+02
  10.442  0.1491E+01  0.1209E+02
  10.452  0.1493E+01  0.1210E+02
  10.462  0.1492E+01  0.1212E+02
  10.472  0.1487E+01  0.1213E+02
  10.482  0.1479E+01  0.1215E+02
  10.492  0.1466E+01  0.1216E+02
  10.502  0.1450E+01  0.1218E+02
  10.512  0.1431E+01  0.1219E+02
  10.522  0.1408E+01  0.1220E+02
  10.532  0.1384E+01  0.1222E+02
  10.542  0.1357E+01  0.1223E+02
  10.552  0.1330E+01  0.1224E+02
  10.562  0.1302E+01  0.1226E+02
  10.572  0.1274E+01  0.1227E+02
  10.582  0.1247E+01  0.1228E+02
  10.592  0.1222E+01  0.1230E+02
  10.602  0.1199E+01  0.1231E+02
  10.612  0.1178E+01  0.1232E+02
  10.622  0.1160E+01  0.1233E+02
  10.632  0.1146E+01  0.1234E+02
  10.642  0.1135E+01  0.1235E+02
  10.652  0.1127E+01  0.1236E+02
  10.662  0.1122E+01  0.1238E+02
  10.672  0.1120E+01  0.1239E+02
  10.682  0.1121E+01  0.1240E+02
  10.692  0.1125E+01  0.1241E+02
  10.702  0.1131E+01  0.1242E+02
  10.712  0.1138E+01  0.1243E+02
  10.722  0.1147E+01  0.1244E+02
  10.732  0.1156E+01  0.1246E+02
  10.742  0.1166E+01  0.1247E+02
  10.752  0.1175E+01  0.1248E+02
  10.762  0.1185E+01  0.1249E+02
  10.772  0.1193E+01  0.1250E+02
  10.782  0.1200E+01  0.1251E+02
  10.792  0.1206E+01  0.1253E+02
  10.802  0.1211E+01  0.1254E+02
  10.812  0.1214E+01  0.1255E+02
  10.822  0.1216E+01  0.1256E+02
  10.832  0.1216E+01  0.1257E+02
  10.842  0.1215E+01  0.1259E+02
  10.852  0.1212E+01  0.1260E+02
  10.862  0.1209E+01  0.1261E+02
  10.872  0.1204E+01  0.1262E+02
  10.882  0.1199E+01  0.1264E+02
  10.892  0.1193E+01  0.1265E+02
  10.902  0.1187E+01  0.1266E+02
  10.912  0.1182E+01  0.1267E+02
  10.922  0.1176E+01  0.1268E+02
  10.932  0.1171E+01  0.1269E+02
  10.942  0.1166E+01  0.1271E+02
  10.952  0.1162E+01  0.1272E+02
  10.962  0.1160E+01  0.1273E+02
  10.972  0.1158E+01  0.1274E+02
  10.982  0.1157E+01  0.1275E+02
  10.992  0.1158E+01  0.1276E+02
  11.002  0.1159E+01  0.1278E+02
  11.012  0.1161E+01  0.1279E+02
  11.022  0.1165E+01  0.1280E+02
  11.032  0.1169E+01  0.1281E+02
  11.042  0.1174E+01  0.1282E+02
  11.052  0.1179E+01  0.1283E+02
  11.062  0.1185E+01  0.1285E+02
  11.072  0.1192E+01  0.1286E+02
  11.082  0.1198E+01  0.1287E+02
  11.092  0.1205E+01  0.1288E+02
  11.102  0.1213E+01  0.1289E+02
  11.112  0.1221E+01  0.1291E+02
  11.122  0.1229E+01  0.1292E+02
  11.132  0.1238E+01  0.1293E+02
  11.142  0.1247E+01  0.1294E+02
  11.152  0.1256E+01  0.1296E+02
  11.162  0.1267E+01  0.1297E+02
  11.172  0.1278E+01  0.1298E+02
  11.182  0.1289E+01  0.1299E+02
  11.192  0.1302E+01  0.1301E+02
  11.202  0.1314E+01  0.1302E+02
  11.212  0.1328E+01  0.1303E+02
  11.222  0.1341E+01  0.1305E+02
  11.232  0.1354E+01  0.1306E+02
  11.242  0.1367E+01  0.1307E+02
  11.252  0.1380E+01  0.1309E+02
  11.262  0.1392E+01  0.1310E+02
  11.272  0.1402E+01  0.1312E+02
  11.282  0.1411E+01  0.1313E+02
  11.292  0.1419E+01  0.1314E+02
  11.302  0.1424E+01  0.1316E+02
  11.312  0.1426E+01  0.1317E+02
  11.322  0.1426E+01  0.1319E+02
  11.332  0.1423E+01  0.1320E+02
  11.342  0.1417E+01  0.1322E+02
  11.352  0.1408E+01  0.1323E+02
  11.362  0.1396E+01  0.1324E+02
  11.372  0.1381E+01  0.1326E+02
  11.382  0.1363E+01  0.1327E+02
  11.392  0.1343E+01  0.1328E+02
  11.402  0.1320E+01  0.1330E+02
  11.412  0.1296E+01  0.1331E+02
  11.422  0.1270E+01  0.1332E+02
  11.432  0.1243E+01  0.1334E+02
  11.442  0.1216E+01  0.1335E+02
  11.452  0.1189E+01  0.1336E+02
  11.462  0.1162E+01  0.1337E+02
  11.472  0.1137E+01  0.1338E+02
  11.482  0.1113E+01  0.1339E+02
  11.492  0.1090E+01  0.1340E+02
  11.502  0.1069E+01  0.1342E+02
  11.512  0.1051E+01  0.1343E+02
  11.522  0.1034E+01  0.1344E+02
  11.532  0.1020E+01  0.1345E+02
  11.542  0.1008E+01  0.1346E+02
  11.552  0.9983E+00  0.1347E+02
  11.562  0.9905E+00  0.1348E+02
  11.572  0.9845E+00  0.1349E+02
  11.582  0.9800E+00  0.1350E+02
  11.592  0.9769E+00  0.1351E+02
  11.602  0.9749E+00  0.1352E+02
  11.612  0.9737E+00  0.1353E+02
  11.622  0.9731E+00  0.1354E+02
  11.632  0.9730E+00  0.1354E+02
  11.642  0.9731E+00  0.1355E+02
  11.652  0.9734E+00  0.1356E+02
  11.662  0.9738E+00  0.1357E+02
  11.672  0.9744E+00  0.1358E+02
  11.682  0.9750E+00  0.1359E+02
  11.692  0.9759E+00  0.1360E+02
  11.702  0.9772E+00  0.1361E+02
  11.712  0.9790E+00  0.1362E+02
  11.722  0.9815E+00  0.1363E+02
  11.732  0.9848E+00  0.1364E+02
  11.742  0.9892E+00  0.1365E+02
  11.752  0.9948E+00  0.1366E+02
  11.762  0.1002E+01  0.1367E+02
  11.772  0.1010E+01  0.1368E+02
  11.782  0.1019E+01  0.1369E+02
  11.792  0.1030E+01  0.1370E+02
  11.802  0.1042E+01  0.1371E+02
  11.812  0.1055E+01  0.1372E+02
  11.822  0.1068E+01  0.1373E+02
  11.832  0.1082E+01  0.1375E+02
  11.842  0.1096E+01  0.1376E+02
  11.852  0.1110E+01  0.1377E+02
  11.862  0.1123E+01  0.1378E+02
  11.872  0.1136E+01  0.1379E+02
  11.882  0.1147E+01  0.1380E+02
  11.892  0.1157E+01  0.1381E+02
  11.902  0.1166E+01  0.1382E+02
  11.912  0.1173E+01  0.1384E+02
  11.922  0.1179E+01  0.1385E+02
  11.932  0.1183E+01  0.1386E+02
  11.942  0.1185E+01  0.1387E+02
  11.952  0.1186E+01  0.1388E+02
  11.962  0.1187E+01  0.1390E+02
  11.972  0.1187E+01  0.1391E+02
  11.982  0.1186E+01  0.1392E+02
  11.992  0.1185E+01  0.1393E+02
  12.002  0.1185E+01  0.1394E+02
  12.012  0.1185E+01  0.1395E+02
  12.022  0.1187E+01  0.1397E+02
  12.032  0.1189E+01  0.1398E+02
  12.042  0.1193E+01  0.1399E+02
  12.052  0.1198E+01  0.1400E+02
  12.062  0.1205E+01  0.1401E+02
  12.072  0.1212E+01  0.1403E+02
  12.082  0.1221E+01  0.1404E+02
  12.092  0.1230E+01  0.1405E+02
  12.102  0.1240E+01  0.1406E+02
  12.112  0.1250E+01  0.1408E+02
  12.122  0.1259E+01  0.1409E+02
  12.132  0.1268E+01  0.1410E+02
  12.142  0.1275E+01  0.1411E+02
  12.152  0.1281E+01  0.1413E+02
  12.162  0.1284E+01  0.1414E+02
  12.172  0.1286E+01  0.1415E+02
  12.182  0.1284E+01  0.1417E+02
  12.192  0.1280E+01  0.1418E+02
  12.202  0.1274E+01  0.1419E+02
  12.212  0.1264E+01  0.1420E+02
  12.222  0.1252E+01  0.1422E+02
  12.232  0.1238E+01  0.1423E+02
  12.242  0.1221E+01  0.1424E+02
  12.252  0.1202E+01  0.1425E+02
  12.262  0.1181E+01  0.1426E+02
  12.272  0.1158E+01  0.1428E+02
  12.282  0.1135E+01  0.1429E+02
  12.292  0.1110E+01  0.1430E+02
  12.302  0.1084E+01  0.1431E+02
  12.312  0.1058E+01  0.1432E+02
  12.322  0.1032E+01  0.1433E+02
  12.332  0.1006E+01  0.1434E+02
  12.342  0.9804E+00  0.1435E+02
  12.352  0.9557E+00  0.1436E+02
  12.362  0.9321E+00  0.1437E+02
  12.372  0.9098E+00  0.1438E+02
  12.382  0.8892E+00  0.1439E+02
  12.392  0.8705E+00  0.1440E+02
  12.402  0.8540E+00  0.1440E+02
  12.412  0.8397E+00  0.1441E+02
  12.422  0.8279E+00  0.1442E+02
  12.432  0.8186E+00  0.1443E+02
  12.442  0.8118E+00  0.1444E+02
  12.452  0.8075E+00  0.1445E+02
  12.462  0.8054E+00  0.1445E+02
  12.472  0.8055E+00  0.1446E+02
  12.482  0.8075E+00  0.1447E+02
  12.492  0.8111E+00  0.1448E+02
  12.502  0.8159E+00  0.1449E+02
  12.512  0.8218E+00  0.1449E+02
  12.522  0.8282E+00  0.1450E+02
  12.532  0.8350E+00  0.1451E+02
  12.542  0.8419E+00  0.1452E+02
  12.552  0.8485E+00  0.1453E+02
  12.562  0.8547E+00  0.1454E+02
  12.572  0.8603E+00  0.1454E+02
  12.582  0.8653E+00  0.1455E+02
  12.592  0.8697E+00  0.1456E+02
  12.602  0.8736E+00  0.1457E+02
  12.612  0.8769E+00  0.1458E+02
  12.622  0.8801E+00  0.1459E+02
  12.632  0.8833E+00  0.1460E+02
  12.642  0.8867E+00  0.1461E+02
  12.652  0.8908E+00  0.1462E+02
  12.662  0.8958E+00  0.1462E+02
  12.672  0.9021E+00  0.1463E+02
  12.682  0.9099E+00  0.1464E+02
  12.692  0.9196E+00  0.1465E+02
  12.702  0.9312E+00  0.1466E+02
  12.712  0.9451E+00  0.1467E+02
  12.722  0.9612E+00  0.1468E+02
  12.732  0.9795E+00  0.1469E+02
  12.742  0.1000E+01  0.1470E+02
  12.752  0.1022E+01  0.1471E+02
  12.762  0.1047E+01  0.1472E+02
  12.772  0.1072E+01  0.1473E+02
  12.782  0.1099E+01  0.1474E+02
  12.792  0.1127E+01  0.1475E+02
  12.802  0.1155E+01  0.1476E+02
  12.812  0.1184E+01  0.1478E+02
  12.822  0.1212E+01  0.1479E+02
  12.832  0.1239E+01  0.1480E+02
  12.842  0.1266E+01  0.1481E+02
  12.852  0.1293E+01  0.1483E+02
  12.862  0.1318E+01  0.1484E+02
  12.872  0.1342E+01  0.1485E+02
  12.882  0.1365E+01  0.1487E+02
  12.892  0.1388E+01  0.1488E+02
  12.902  0.1409E+01  0.1489E+02
  12.912  0.1430E+01  0.1491E+02
  12.922  0.1450E+01  0.1492E+02
  12.932  0.1469E+01  0.1494E+02
  12.942  0.1488E+01  0.1495E+02
  12.952  0.1506E+01  0.1497E+02
  12.962  0.1524E+01  0.1498E+02
  12.972  0.1541E+01  0.1500E+02
  12.982  0.1557E+01  0.1501E+02
  12.992  0.1572E+01  0.1503E+02
  13.002  0.1586E+01  0.1505E+02
  13.012  0.1598E+01  0.1506E+02
  13.022  0.1608E+01  0.1508E+02
  13.032  0.1616E+01  0.1509E+02
  13.042  0.1621E+01  0.1511E+02
  13.052  0.1623E+01  0.1513E+02
  13.062  0.1622E+01  0.1514E+02
  13.072  0.1618E+01  0.1516E+02
  13.082  0.1611E+01  0.1518E+02
  13.092  0.1599E+01  0.1519E+02
  13.102  0.1585E+01  0.1521E+02
  13.112  0.1566E+01  0.1522E+02
  13.122  0.1545E+01  0.1524E+02
  13.132  0.1520E+01  0.1525E+02
  13.142  0.1492E+01  0.1527E+02
  13.152  0.1462E+01  0.1528E+02
  13.162  0.1430E+01  0.1530E+02
  13.172  0.1395E+01  0.1531E+02
  13.182  0.1359E+01  0.1532E+02
  13.192  0.1322E+01  0.1534E+02
  13.202  0.1285E+01  0.1535E+02
  13.212  0.1246E+01  0.1536E+02
  13.222  0.1208E+01  0.1538E+02
  13.232  0.1170E+01  0.1539E+02
  13.242  0.1133E+01  0.1540E+02
  13.252  0.1096E+01  0.1541E+02
  13.262  0.1061E+01  0.1542E+02
  13.272  0.1028E+01  0.1543E+02
  13.282  0.9960E+00  0.1544E+02
  13.292  0.9662E+00  0.1545E+02
  13.302  0.9386E+00  0.1546E+02
  13.312  0.9132E+00  0.1547E+02
  13.322  0.8903E+00  0.1548E+02
  13.332  0.8700E+00  0.1549E+02
  13.342  0.8521E+00  0.1549E+02
  13.352  0.8369E+00  0.1550E+02
  13.362  0.8241E+00  0.1551E+02
  13.372  0.8138E+00  0.1552E+02
  13.382  0.8056E+00  0.1553E+02
  13.392  0.7996E+00  0.1554E+02
  13.402  0.7953E+00  0.1554E+02
  13.412  0.7926E+00  0.1555E+02
  13.422  0.7912E+00  0.1556E+02
  13.432  0.7907E+00  0.1557E+02
  13.442  0.7908E+00  0.1558E+02
  13.452  0.7914E+00  0.1558E+02
  13.462  0.7920E+00  0.1559E+02
  13.472  0.7926E+00  0.1560E+02
  13.482  0.7930E+00  0.1561E+02
  13.492  0.7931E+00  0.1561E+02
  13.502  0.7930E+00  0.1562E+02
  13.512  0.7926E+00  0.1563E+02
  13.522  0.7922E+00  0.1564E+02
  13.532  0.7919E+00  0.1565E+02
  13.542  0.7920E+00  0.1565E+02
  13.552  0.7928E+00  0.1566E+02
  13.562  0.7946E+00  0.1567E+02
  13.572  0.7978E+00  0.1568E+02
  13.582  0.8027E+00  0.1569E+02
  13.592  0.8097E+00  0.1569E+02
  13.602  0.8189E+00  0.1570E+02
  13.612  0.8308E+00  0.1571E+02
  13.622  0.8454E+00  0.1572E+02
  13.632  0.8629E+00  0.1573E+02
  13.642  0.8834E+00  0.1574E+02
  13.652  0.9069E+00  0.1575E+02
  13.662  0.9333E+00  0.1576E+02
  13.672  0.9625E+00  0.1576E+02
  13.682  0.9942E+00  0.1577E+02
  13.692  0.1028E+01  0.1579E+02
  13.702  0.1064E+01  0.1580E+02
  13.712  0.1101E+01  0.1581E+02
  13.722  0.1140E+01  0.1582E+02
  13.732  0.1179E+01  0.1583E+02
  13.742  0.1218E+01  0.1584E+02
  13.752  0.1257E+01  0.1585E+02
  13.762  0.1295E+01  0.1587E+02
  13.772  0.1332E+01  0.1588E+02
  13.782  0.1368E+01  0.1589E+02
  13.792  0.1402E+01  0.1591E+02
  13.802  0.1433E+01  0.1592E+02
  13.812  0.1463E+01  0.1594E+02
  13.822  0.1490E+01  0.1595E+02
  13.832  0.1515E+01  0.1597E+02
  13.842  0.1538E+01  0.1598E+02
  13.852  0.1559E+01  0.1600E+02
  13.862  0.1579E+01  0.1601E+02
  13.872  0.1597E+01  0.1603E+02
  13.882  0.1613E+01  0.1605E+02
  13.892  0.1629E+01  0.1606E+02
  13.902  0.1644E+01  0.1608E+02
  13.912  0.1659E+01  0.1610E+02
  13.922  0.1673E+01  0.1611E+02
  13.932  0.1687E+01  0.1613E+02
  13.942  0.1701E+01  0.1615E+02
  13.952  0.1714E+01  0.1616E+02
  13.962  0.1728E+01  0.1618E+02
  13.972  0.1741E+01  0.1620E+02
  13.982  0.1753E+01  0.1622E+02
  13.992  0.1764E+01  0.1623E+02
  14.002  0.1773E+01  0.1625E+02
  14.012  0.1782E+01  0.1627E+02
  14.022  0.1788E+01  0.1629E+02
  14.032  0.1791E+01  0.1630E+02
  14.042  0.1792E+01  0.1632E+02
  14.052  0.1789E+01  0.1634E+02
  14.062  0.1784E+01  0.1636E+02
  14.072  0.1774E+01  0.1638E+02
  14.082  0.1760E+01  0.1639E+02
  14.092  0.1742E+01  0.1641E+02
  14.102  0.1720E+01  0.1643E+02
  14.112  0.1694E+01  0.1645E+02
  14.122  0.1664E+01  0.1646E+02
  14.132  0.1630E+01  0.1648E+02
  14.142  0.1592E+01  0.1649E+02
  14.152  0.1551E+01  0.1651E+02
  14.162  0.1507E+01  0.1652E+02
  14.172  0.1461E+01  0.1654E+02
  14.182  0.1412E+01  0.1655E+02
  14.192  0.1363E+01  0.1657E+02
  14.202  0.1312E+01  0.1658E+02
  14.212  0.1262E+01  0.1659E+02
  14.222  0.1212E+01  0.1660E+02
  14.232  0.1162E+01  0.1662E+02
  14.242  0.1114E+01  0.1663E+02
  14.252  0.1068E+01  0.1664E+02
  14.262  0.1023E+01  0.1665E+02
  14.272  0.9811E+00  0.1666E+02
  14.282  0.9415E+00  0.1667E+02
  14.292  0.9047E+00  0.1668E+02
  14.302  0.8707E+00  0.1669E+02
  14.312  0.8397E+00  0.1669E+02
  14.322  0.8117E+00  0.1670E+02
  14.332  0.7868E+00  0.1671E+02
  14.342  0.7649E+00  0.1672E+02
  14.352  0.7460E+00  0.1673E+02
  14.362  0.7300E+00  0.1673E+02
  14.372  0.7169E+00  0.1674E+02
  14.382  0.7066E+00  0.1675E+02
  14.392  0.6990E+00  0.1675E+02
  14.402  0.6941E+00  0.1676E+02
  14.412  0.6916E+00  0.1677E+02
  14.422  0.6916E+00  0.1677E+02
  14.432  0.6940E+00  0.1678E+02
  14.442  0.6986E+00  0.1679E+02
  14.452  0.7053E+00  0.1680E+02
  14.462  0.7141E+00  0.1680E+02
  14.472  0.7249E+00  0.1681E+02
  14.482  0.7374E+00  0.1682E+02
  14.492  0.7517E+00  0.1682E+02
  14.502  0.7675E+00  0.1683E+02
  14.512  0.7846E+00  0.1684E+02
  14.522  0.8030E+00  0.1685E+02
  14.532  0.8223E+00  0.1686E+02
  14.542  0.8424E+00  0.1686E+02
  14.552  0.8629E+00  0.1687E+02
  14.562  0.8838E+00  0.1688E+02
  14.572  0.9046E+00  0.1689E+02
  14.582  0.9251E+00  0.1690E+02
  14.592  0.9452E+00  0.1691E+02
  14.602  0.9646E+00  0.1692E+02
  14.612  0.9830E+00  0.1693E+02
  14.622  0.1000E+01  0.1694E+02
  14.632  0.1017E+01  0.1695E+02
  14.642  0.1032E+01  0.1696E+02
  14.652  0.1045E+01  0.1697E+02
  14.662  0.1058E+01  0.1698E+02
  14.672  0.1070E+01  0.1699E+02
  14.682  0.1080E+01  0.1700E+02
  14.692  0.1091E+01  0.1701E+02
  14.702  0.1100E+01  0.1702E+02
  14.712  0.1110E+01  0.1704E+02
  14.722  0.1120E+01  0.1705E+02
  14.732  0.1130E+01  0.1706E+02
  14.742  0.1142E+01  0.1707E+02
  14.752  0.1154E+01  0.1708E+02
  14.762  0.1168E+01  0.1709E+02
  14.772  0.1184E+01  0.1710E+02
  14.782  0.1202E+01  0.1712E+02
  14.792  0.1222E+01  0.1713E+02
  14.802  0.1244E+01  0.1714E+02
  14.812  0.1268E+01  0.1715E+02
  14.822  0.1294E+01  0.1717E+02
  14.832  0.1323E+01  0.1718E+02
  14.842  0.1353E+01  0.1719E+02
  14.852  0.1386E+01  0.1721E+02
  14.862  0.1419E+01  0.1722E+02
  14.872  0.1455E+01  0.1724E+02
  14.882  0.1491E+01  0.1725E+02
  14.892  0.1527E+01  0.1727E+02
  14.902  0.1564E+01  0.1728E+02
  14.912  0.1600E+01  0.1730E+02
  14.922  0.1635E+01  0.1731E+02
  14.932  0.1668E+01  0.1733E+02
  14.942  0.1699E+01  0.1735E+02
  14.952  0.1726E+01  0.1737E+02
  14.962  0.1750E+01  0.1738E+02
  14.972  0.1770E+01  0.1740E+02
  14.982  0.1785E+01  0.1742E+02
  14.992  0.1794E+01  0.1744E+02
  15.002  0.1797E+01  0.1745E+02
  15.012  0.1793E+01  0.1747E+02
  15.022  0.1783E+01  0.1749E+02
  15.032  0.1767E+01  0.1751E+02
  15.042  0.1743E+01  0.1753E+02
  15.052  0.1713E+01  0.1754E+02
  15.062  0.1678E+01  0.1756E+02
  15.072  0.1636E+01  0.1758E+02
  15.082  0.1590E+01  0.1759E+02
  15.092  0.1540E+01  0.1761E+02
  15.102  0.1487E+01  0.1762E+02
  15.112  0.1431E+01  0.1764E+02
  15.122  0.1375E+01  0.1765E+02
  15.132  0.1318E+01  0.1766E+02
  15.142  0.1262E+01  0.1768E+02
  15.152  0.1208E+01  0.1769E+02
  15.162  0.1157E+01  0.1770E+02
  15.172  0.1109E+01  0.1771E+02
  15.182  0.1064E+01  0.1772E+02
  15.192  0.1025E+01  0.1773E+02
  15.202  0.9896E+00  0.1774E+02
  15.212  0.9596E+00  0.1775E+02
  15.222  0.9345E+00  0.1776E+02
  15.232  0.9143E+00  0.1777E+02
  15.242  0.8987E+00  0.1778E+02
  15.252  0.8875E+00  0.1779E+02
  15.262  0.8800E+00  0.1780E+02
  15.272  0.8758E+00  0.1780E+02
  15.282  0.8744E+00  0.1781E+02
  15.292  0.8751E+00  0.1782E+02
  15.302  0.8774E+00  0.1783E+02
  15.312  0.8807E+00  0.1784E+02
  15.322  0.8844E+00  0.1785E+02
  15.332  0.8881E+00  0.1786E+02
  15.342  0.8913E+00  0.1787E+02
  15.352  0.8938E+00  0.1788E+02
  15.362  0.8953E+00  0.1788E+02
  15.372  0.8956E+00  0.1789E+02
  15.382  0.8947E+00  0.1790E+02
  15.392  0.8925E+00  0.1791E+02
  15.402  0.8891E+00  0.1792E+02
  15.412  0.8848E+00  0.1793E+02
  15.422  0.8796E+00  0.1794E+02
  15.432  0.8740E+00  0.1795E+02
  15.442  0.8681E+00  0.1795E+02
  15.452  0.8624E+00  0.1796E+02
  15.462  0.8571E+00  0.1797E+02
  15.472  0.8527E+00  0.1798E+02
  15.482  0.8494E+00  0.1799E+02
  15.492  0.8477E+00  0.1800E+02
  15.502  0.8477E+00  0.1801E+02
  15.512  0.8499E+00  0.1801E+02
  15.522  0.8544E+00  0.1802E+02
  15.532  0.8613E+00  0.1803E+02
  15.542  0.8710E+00  0.1804E+02
  15.552  0.8834E+00  0.1805E+02
  15.562  0.8985E+00  0.1806E+02
  15.572  0.9165E+00  0.1807E+02
  15.582  0.9371E+00  0.1808E+02
  15.592  0.9603E+00  0.1809E+02
  15.602  0.9859E+00  0.1810E+02
  15.612  0.1014E+01  0.1811E+02
  15.622  0.1043E+01  0.1812E+02
  15.632  0.1075E+01  0.1813E+02
  15.642  0.1107E+01  0.1814E+02
  15.652  0.1141E+01  0.1815E+02
  15.662  0.1175E+01  0.1816E+02
  15.672  0.1210E+01  0.1817E+02
  15.682  0.1244E+01  0.1819E+02
  15.692  0.1278E+01  0.1820E+02
  15.702  0.1312E+01  0.1821E+02
  15.712  0.1344E+01  0.1823E+02
  15.722  0.1375E+01  0.1824E+02
  15.732  0.1405E+01  0.1825E+02
  15.742  0.1433E+01  0.1827E+02
  15.752  0.1459E+01  0.1828E+02
  15.762  0.1482E+01  0.1830E+02
  15.772  0.1504E+01  0.1831E+02
  15.782  0.1523E+01  0.1833E+02
  15.792  0.1539E+01  0.1834E+02
  15.802  0.1553E+01  0.1836E+02
  15.812  0.1563E+01  0.1837E+02
  15.822  0.1570E+01  0.1839E+02
  15.832  0.1574E+01  0.1841E+02
  15.842  0.1575E+01  0.1842E+02
  15.852  0.1572E+01  0.1844E+02
  15.862  0.1566E+01  0.1845E+02
  15.872  0.1556E+01  0.1847E+02
  15.882  0.1543E+01  0.1848E+02
  15.892  0.1526E+01  0.1850E+02
  15.902  0.1506E+01  0.1851E+02
  15.912  0.1483E+01  0.1853E+02
  15.922  0.1458E+01  0.1854E+02
  15.932  0.1430E+01  0.1856E+02
  15.942  0.1401E+01  0.1857E+02
  15.952  0.1370E+01  0.1859E+02
  15.962  0.1338E+01  0.1860E+02
  15.972  0.1306E+01  0.1861E+02
  15.982  0.1274E+01  0.1862E+02
  15.992  0.1242E+01  0.1864E+02
  16.002  0.1211E+01  0.1865E+02
  16.012  0.1182E+01  0.1866E+02
  16.022  0.1154E+01  0.1867E+02
  16.032  0.1128E+01  0.1868E+02
  16.042  0.1105E+01  0.1869E+02
  16.052  0.1084E+01  0.1871E+02
  16.062  0.1065E+01  0.1872E+02
  16.072  0.1049E+01  0.1873E+02
  16.082  0.1035E+01  0.1874E+02
  16.092  0.1025E+01  0.1875E+02
  16.102  0.1016E+01  0.1876E+02
  16.112  0.1010E+01  0.1877E+02
  16.122  0.1006E+01  0.1878E+02
  16.132  0.1004E+01  0.1879E+02
  16.142  0.1004E+01  0.1880E+02
  16.152  0.1004E+01  0.1881E+02
  16.162  0.1006E+01  0.1882E+02
  16.172  0.1008E+01  0.1883E+02
  16.182  0.1010E+01  0.1884E+02
  16.192  0.1012E+01  0.1885E+02
  16.202  0.1013E+01  0.1886E+02
  16.212  0.1013E+01  0.1887E+02
  16.222  0.1012E+01  0.1888E+02
  16.232  0.1009E+01  0.1889E+02
  16.242  0.1005E+01  0.1890E+02
  16.252  0.9985E+00  0.1891E+02
  16.262  0.9905E+00  0.1892E+02
  16.272  0.9805E+00  0.1893E+02
  16.282  0.9687E+00  0.1894E+02
  16.292  0.9552E+00  0.1895E+02
  16.302  0.9400E+00  0.1896E+02
  16.312  0.9234E+00  0.1897E+02
  16.322  0.9056E+00  0.1898E+02
  16.332  0.8868E+00  0.1898E+02
  16.342  0.8673E+00  0.1899E+02
  16.352  0.8476E+00  0.1900E+02
  16.362  0.8278E+00  0.1901E+02
  16.372  0.8084E+00  0.1902E+02
  16.382  0.7899E+00  0.1903E+02
  16.392  0.7724E+00  0.1903E+02
  16.402  0.7566E+00  0.1904E+02
  16.412  0.7427E+00  0.1905E+02
  16.422  0.7310E+00  0.1906E+02
  16.432  0.7220E+00  0.1906E+02
  16.442  0.7158E+00  0.1907E+02
  16.452  0.7126E+00  0.1908E+02
  16.462  0.7126E+00  0.1908E+02
  16.472  0.7158E+00  0.1909E+02
  16.482  0.7222E+00  0.1910E+02
  16.492  0.7316E+00  0.1911E+02
  16.502  0.7438E+00  0.1911E+02
  16.512  0.7585E+00  0.1912E+02
  16.522  0.7754E+00  0.1913E+02
  16.532  0.7941E+00  0.1914E+02
  16.542  0.8141E+00  0.1914E+02
  16.552  0.8349E+00  0.1915E+02
  16.562  0.8562E+00  0.1916E+02
  16.572  0.8774E+00  0.1917E+02
  16.582  0.8981E+00  0.1918E+02
  16.592  0.9180E+00  0.1919E+02
  16.602  0.9366E+00  0.1920E+02
  16.612  0.9537E+00  0.1921E+02
  16.622  0.9690E+00  0.1922E+02
  16.632  0.9824E+00  0.1923E+02
  16.642  0.9937E+00  0.1924E+02
  16.652  0.1003E+01  0.1925E+02
  16.662  0.1010E+01  0.1926E+02
  16.672  0.1015E+01  0.1927E+02
  16.682  0.1018E+01  0.1928E+02
  16.692  0.1020E+01  0.1929E+02
  16.702  0.1019E+01  0.1930E+02
  16.712  0.1018E+01  0.1931E+02
  16.722  0.1015E+01  0.1932E+02
  16.732  0.1012E+01  0.1933E+02
  16.742  0.1008E+01  0.1934E+02
  16.752  0.1003E+01  0.1935E+02
  16.762  0.9994E+00  0.1936E+02
  16.772  0.9956E+00  0.1937E+02
  16.782  0.9923E+00  0.1938E+02
  16.792  0.9898E+00  0.1939E+02
  16.802  0.9880E+00  0.1940E+02
  16.812  0.9871E+00  0.1941E+02
  16.822  0.9870E+00  0.1942E+02
  16.832  0.9877E+00  0.1943E+02
  16.842  0.9890E+00  0.1944E+02
  16.852  0.9909E+00  0.1945E+02
  16.862  0.9930E+00  0.1946E+02
  16.872  0.9953E+00  0.1947E+02
  16.882  0.9975E+00  0.1948E+02
  16.892  0.9993E+00  0.1949E+02
  16.902  0.1001E+01  0.1950E+02
  16.912  0.1002E+01  0.1951E+02
  16.922  0.1002E+01  0.1952E+02
  16.932  0.1001E+01  0.1953E+02
  16.942  0.9994E+00  0.1954E+02
  16.952  0.9970E+00  0.1955E+02
  16.962  0.9939E+00  0.1956E+02
  16.972  0.9900E+00  0.1957E+02
  16.982  0.9855E+00  0.1958E+02
  16.992  0.9804E+00  0.1959E+02
  17.002  0.9748E+00  0.1960E+02
  17.012  0.9688E+00  0.1961E+02
  17.022  0.9623E+00  0.1962E+02
  17.032  0.9554E+00  0.1963E+02
  17.042  0.9480E+00  0.1963E+02
  17.052  0.9402E+00  0.1964E+02
  17.062  0.9318E+00  0.1965E+02
  17.072  0.9228E+00  0.1966E+02
  17.082  0.9131E+00  0.1967E+02
  17.092  0.9026E+00  0.1968E+02
  17.102  0.8911E+00  0.1969E+02
  17.112  0.8786E+00  0.1970E+02
  17.122  0.8651E+00  0.1971E+02
  17.132  0.8505E+00  0.1972E+02
  17.142  0.8348E+00  0.1972E+02
  17.152  0.8180E+00  0.1973E+02
  17.162  0.8003E+00  0.1974E+02
  17.172  0.7817E+00  0.1975E+02
  17.182  0.7623E+00  0.1976E+02
  17.192  0.7424E+00  0.1976E+02
  17.202  0.7221E+00  0.1977E+02
  17.212  0.7017E+00  0.1978E+02
  17.222  0.6812E+00  0.1978E+02
  17.232  0.6610E+00  0.1979E+02
  17.242  0.6412E+00  0.1980E+02
  17.252  0.6219E+00  0.1980E+02
  17.262  0.6033E+00  0.1981E+02
  17.272  0.5855E+00  0.1982E+02
  17.282  0.5685E+00  0.1982E+02
  17.292  0.5523E+00  0.1983E+02
  17.302  0.5368E+00  0.1983E+02
  17.312  0.5221E+00  0.1984E+02
  17.322  0.5081E+00  0.1984E+02
  17.332  0.4947E+00  0.1985E+02
  17.342  0.4818E+00  0.1985E+02
  17.352  0.4693E+00  0.1986E+02
  17.362  0.4571E+00  0.1986E+02
  17.372  0.4451E+00  0.1987E+02
  17.382  0.4334E+00  0.1987E+02
  17.392  0.4219E+00  0.1987E+02
  17.402  0.4105E+00  0.1988E+02
  17.412  0.3993E+00  0.1988E+02
  17.422  0.3884E+00  0.1989E+02
  17.432  0.3777E+00  0.1989E+02
  17.442  0.3674E+00  0.1989E+02
  17.452  0.3574E+00  0.1990E+02
  17.462  0.3479E+00  0.1990E+02
  17.472  0.3388E+00  0.1990E+02
  17.482  0.3303E+00  0.1991E+02
  17.492  0.3223E+00  0.1991E+02
  17.502  0.3150E+00  0.1991E+02
  17.512  0.3082E+00  0.1992E+02
  17.522  0.3020E+00  0.1992E+02
  17.532  0.2964E+00  0.1992E+02
  17.542  0.2912E+00  0.1993E+02
  17.552  0.2866E+00  0.1993E+02
  17.562  0.2824E+00  0.1993E+02
  17.572  0.2785E+00  0.1993E+02
  17.582  0.2748E+00  0.1994E+02
  17.592  0.2714E+00  0.1994E+02
  17.602  0.2679E+00  0.1994E+02
  17.612  0.2644E+00  0.1995E+02
  17.622  0.2608E+00  0.1995E+02
  17.632  0.2570E+00  0.1995E+02
  17.642  0.2528E+00  0.1995E+02
  17.652  0.2482E+00  0.1996E+02
  17.662  0.2433E+00  0.1996E+02
  17.672  0.2378E+00  0.1996E+02
  17.682  0.2319E+00  0.1996E+02
  17.692  0.2255E+00  0.1996E+02
  17.702  0.2186E+00  0.1997E+02
  17.712  0.2114E+00  0.1997E+02
  17.722  0.2038E+00  0.1997E+02
  17.732  0.1960E+00  0.1997E+02
  17.742  0.1880E+00  0.1997E+02
  17.752  0.1799E+00  0.1998E+02
  17.762  0.1718E+00  0.1998E+02
  17.772  0.1637E+00  0.1998E+02
  17.782  0.1558E+00  0.1998E+02
  17.792  0.1480E+00  0.1998E+02
  17.802  0.1403E+00  0.1998E+02
  17.812  0.1329E+00  0.1999E+02
  17.822  0.1257E+00  0.1999E+02
  17.832  0.1187E+00  0.1999E+02
  17.842  0.1118E+00  0.1999E+02
  17.852  0.1051E+00  0.1999E+02
  17.862  0.9857E-01  0.1999E+02
  17.872  0.9214E-01  0.1999E+02
  17.882  0.8581E-01  0.1999E+02
  17.892  0.7959E-01  0.1999E+02
  17.902  0.7347E-01  0.1999E+02
  17.912  0.6746E-01  0.2000E+02
  17.922  0.6158E-01  0.2000E+02
  17.932  0.5585E-01  0.2000E+02
  17.942  0.5032E-01  0.2000E+02
  17.952  0.4500E-01  0.2000E+02
  17.962  0.3993E-01  0.2000E+02
  17.972  0.3515E-01  0.2000E+02
  17.982  0.3069E-01  0.2000E+02
  17.992  0.2656E-01  0.2000E+02
  18.002  0.2278E-01  0.2000E+02
  18.012  0.1936E-01  0.2000E+02
  18.022  0.1630E-01  0.2000E+02
  18.032  0.1360E-01  0.2000E+02
  18.042  0.1123E-01  0.2000E+02
  18.052  0.9185E-02  0.2000E+02
  18.062  0.7438E-02  0.2000E+02
  18.072  0.5964E-02  0.2000E+02
  18.082  0.4733E-02  0.2000E+02
  18.092  0.3719E-02  0.2000E+02
  18.102  0.2892E-02  0.2000E+02
  18.112  0.2226E-02  0.2000E+02
  18.122  0.1696E-02  0.2000E+02
  18.132  0.1278E-02  0.2000E+02
  18.142  0.9538E-03  0.2000E+02
  18.152  0.7042E-03  0.2000E+02
  18.162  0.5145E-03  0.2000E+02
  18.172  0.3720E-03  0.2000E+02
  18.182  0.2662E-03  0.2000E+02
  18.192  0.1884E-03  0.2000E+02
  18.202  0.1320E-03  0.2000E+02
  18.212  0.9149E-04  0.2000E+02
  18.222  0.6275E-04  0.2000E+02
  18.232  0.4258E-04  0.2000E+02
  18.242  0.2859E-04  0.2000E+02
  18.252  0.1900E-04  0.2000E+02
  18.262  0.1249E-04  0.2000E+02
  18.272  0.8121E-05  0.2000E+02
  18.282  0.5226E-05  0.2000E+02
