#  E (eV)   dos(E)     Int dos(E) EFermi =    6.206 eV
  -6.851  0.7539E-06  0.7539E-08
  -6.841  0.9105E-06  0.1664E-07
  -6.831  0.1098E-05  0.2762E-07
  -6.821  0.1322E-05  0.4084E-07
  -6.811  0.1588E-05  0.5672E-07
  -6.801  0.1906E-05  0.7578E-07
  -6.791  0.2283E-05  0.9862E-07
  -6.781  0.2731E-05  0.1259E-06
  -6.771  0.3261E-05  0.1585E-06
  -6.761  0.3888E-05  0.1974E-06
  -6.751  0.4628E-05  0.2437E-06
  -6.741  0.5500E-05  0.2987E-06
  -6.731  0.6526E-05  0.3640E-06
  -6.721  0.7730E-05  0.4413E-06
  -6.711  0.9142E-05  0.5327E-06
  -6.701  0.1080E-04  0.6406E-06
  -6.691  0.1273E-04  0.7679E-06
  -6.681  0.1498E-04  0.9177E-06
  -6.671  0.1760E-04  0.1094E-05
  -6.661  0.2065E-04  0.1300E-05
  -6.651  0.2419E-04  0.1542E-05
  -6.641  0.2830E-04  0.1825E-05
  -6.631  0.3304E-04  0.2156E-05
  -6.621  0.3853E-04  0.2541E-05
  -6.611  0.4485E-04  0.2989E-05
  -6.601  0.5212E-04  0.3511E-05
  -6.591  0.6048E-04  0.4115E-05
  -6.581  0.7007E-04  0.4816E-05
  -6.571  0.8105E-04  0.5627E-05
  -6.561  0.9361E-04  0.6563E-05
  -6.551  0.1079E-03  0.7642E-05
  -6.541  0.1243E-03  0.8885E-05
  -6.531  0.1429E-03  0.1031E-04
  -6.521  0.1640E-03  0.1195E-04
  -6.511  0.1879E-03  0.1383E-04
  -6.501  0.2150E-03  0.1598E-04
  -6.491  0.2456E-03  0.1844E-04
  -6.481  0.2802E-03  0.2124E-04
  -6.471  0.3191E-03  0.2443E-04
  -6.461  0.3629E-03  0.2806E-04
  -6.451  0.4121E-03  0.3218E-04
  -6.441  0.4672E-03  0.3685E-04
  -6.431  0.5288E-03  0.4214E-04
  -6.421  0.5977E-03  0.4812E-04
  -6.411  0.6746E-03  0.5486E-04
  -6.401  0.7601E-03  0.6247E-04
  -6.391  0.8553E-03  0.7102E-04
  -6.381  0.9609E-03  0.8063E-04
  -6.371  0.1078E-02  0.9141E-04
  -6.361  0.1207E-02  0.1035E-03
  -6.351  0.1350E-02  0.1170E-03
  -6.341  0.1508E-02  0.1321E-03
  -6.331  0.1682E-02  0.1489E-03
  -6.321  0.1873E-02  0.1676E-03
  -6.311  0.2082E-02  0.1884E-03
  -6.301  0.2311E-02  0.2115E-03
  -6.291  0.2562E-02  0.2372E-03
  -6.281  0.2837E-02  0.2655E-03
  -6.271  0.3136E-02  0.2969E-03
  -6.261  0.3461E-02  0.3315E-03
  -6.251  0.3815E-02  0.3696E-03
  -6.241  0.4198E-02  0.4116E-03
  -6.231  0.4614E-02  0.4578E-03
  -6.221  0.5064E-02  0.5084E-03
  -6.211  0.5550E-02  0.5639E-03
  -6.201  0.6074E-02  0.6247E-03
  -6.191  0.6638E-02  0.6910E-03
  -6.181  0.7244E-02  0.7635E-03
  -6.171  0.7895E-02  0.8424E-03
  -6.161  0.8592E-02  0.9284E-03
  -6.151  0.9338E-02  0.1022E-02
  -6.141  0.1014E-01  0.1123E-02
  -6.131  0.1099E-01  0.1233E-02
  -6.121  0.1189E-01  0.1352E-02
  -6.111  0.1285E-01  0.1480E-02
  -6.101  0.1388E-01  0.1619E-02
  -6.091  0.1496E-01  0.1769E-02
  -6.081  0.1611E-01  0.1930E-02
  -6.071  0.1732E-01  0.2103E-02
  -6.061  0.1860E-01  0.2289E-02
  -6.051  0.1994E-01  0.2488E-02
  -6.041  0.2136E-01  0.2702E-02
  -6.031  0.2285E-01  0.2930E-02
  -6.021  0.2441E-01  0.3175E-02
  -6.011  0.2605E-01  0.3435E-02
  -6.001  0.2776E-01  0.3713E-02
  -5.991  0.2955E-01  0.4008E-02
  -5.981  0.3141E-01  0.4322E-02
  -5.971  0.3336E-01  0.4656E-02
  -5.961  0.3537E-01  0.5010E-02
  -5.951  0.3747E-01  0.5384E-02
  -5.941  0.3965E-01  0.5781E-02
  -5.931  0.4190E-01  0.6200E-02
  -5.921  0.4423E-01  0.6642E-02
  -5.911  0.4663E-01  0.7108E-02
  -5.901  0.4911E-01  0.7599E-02
  -5.891  0.5166E-01  0.8116E-02
  -5.881  0.5429E-01  0.8659E-02
  -5.871  0.5699E-01  0.9229E-02
  -5.861  0.5976E-01  0.9827E-02
  -5.851  0.6259E-01  0.1045E-01
  -5.841  0.6549E-01  0.1111E-01
  -5.831  0.6846E-01  0.1179E-01
  -5.821  0.7148E-01  0.1251E-01
  -5.811  0.7457E-01  0.1325E-01
  -5.801  0.7771E-01  0.1403E-01
  -5.791  0.8090E-01  0.1484E-01
  -5.781  0.8414E-01  0.1568E-01
  -5.771  0.8743E-01  0.1655E-01
  -5.761  0.9077E-01  0.1746E-01
  -5.751  0.9414E-01  0.1840E-01
  -5.741  0.9755E-01  0.1938E-01
  -5.731  0.1010E+00  0.2039E-01
  -5.721  0.1045E+00  0.2143E-01
  -5.711  0.1080E+00  0.2251E-01
  -5.701  0.1115E+00  0.2363E-01
  -5.691  0.1151E+00  0.2478E-01
  -5.681  0.1186E+00  0.2597E-01
  -5.671  0.1222E+00  0.2719E-01
  -5.661  0.1258E+00  0.2845E-01
  -5.651  0.1294E+00  0.2974E-01
  -5.641  0.1330E+00  0.3107E-01
  -5.631  0.1366E+00  0.3243E-01
  -5.621  0.1402E+00  0.3384E-01
  -5.611  0.1438E+00  0.3527E-01
  -5.601  0.1474E+00  0.3675E-01
  -5.591  0.1510E+00  0.3826E-01
  -5.581  0.1545E+00  0.3980E-01
  -5.571  0.1581E+00  0.4138E-01
  -5.561  0.1616E+00  0.4300E-01
  -5.551  0.1652E+00  0.4465E-01
  -5.541  0.1687E+00  0.4634E-01
  -5.531  0.1721E+00  0.4806E-01
  -5.521  0.1756E+00  0.4982E-01
  -5.511  0.1790E+00  0.5161E-01
  -5.501  0.1824E+00  0.5343E-01
  -5.491  0.1858E+00  0.5529E-01
  -5.481  0.1892E+00  0.5718E-01
  -5.471  0.1925E+00  0.5911E-01
  -5.461  0.1958E+00  0.6106E-01
  -5.451  0.1990E+00  0.6305E-01
  -5.441  0.2023E+00  0.6508E-01
  -5.431  0.2055E+00  0.6713E-01
  -5.421  0.2087E+00  0.6922E-01
  -5.411  0.2118E+00  0.7134E-01
  -5.401  0.2149E+00  0.7349E-01
  -5.391  0.2180E+00  0.7567E-01
  -5.381  0.2210E+00  0.7788E-01
  -5.371  0.2240E+00  0.8012E-01
  -5.361  0.2270E+00  0.8239E-01
  -5.351  0.2300E+00  0.8469E-01
  -5.341  0.2329E+00  0.8701E-01
  -5.331  0.2358E+00  0.8937E-01
  -5.321  0.2386E+00  0.9176E-01
  -5.311  0.2415E+00  0.9417E-01
  -5.301  0.2443E+00  0.9662E-01
  -5.291  0.2471E+00  0.9909E-01
  -5.281  0.2498E+00  0.1016E+00
  -5.271  0.2525E+00  0.1041E+00
  -5.261  0.2553E+00  0.1067E+00
  -5.251  0.2579E+00  0.1092E+00
  -5.241  0.2606E+00  0.1118E+00
  -5.231  0.2632E+00  0.1145E+00
  -5.221  0.2658E+00  0.1171E+00
  -5.211  0.2684E+00  0.1198E+00
  -5.201  0.2710E+00  0.1225E+00
  -5.191  0.2735E+00  0.1253E+00
  -5.181  0.2760E+00  0.1280E+00
  -5.171  0.2785E+00  0.1308E+00
  -5.161  0.2810E+00  0.1336E+00
  -5.151  0.2835E+00  0.1365E+00
  -5.141  0.2860E+00  0.1393E+00
  -5.131  0.2884E+00  0.1422E+00
  -5.121  0.2908E+00  0.1451E+00
  -5.111  0.2932E+00  0.1480E+00
  -5.101  0.2956E+00  0.1510E+00
  -5.091  0.2980E+00  0.1540E+00
  -5.081  0.3003E+00  0.1570E+00
  -5.071  0.3027E+00  0.1600E+00
  -5.061  0.3050E+00  0.1631E+00
  -5.051  0.3073E+00  0.1661E+00
  -5.041  0.3097E+00  0.1692E+00
  -5.031  0.3120E+00  0.1723E+00
  -5.021  0.3142E+00  0.1755E+00
  -5.011  0.3165E+00  0.1787E+00
  -5.001  0.3188E+00  0.1818E+00
  -4.991  0.3211E+00  0.1851E+00
  -4.981  0.3233E+00  0.1883E+00
  -4.971  0.3256E+00  0.1915E+00
  -4.961  0.3278E+00  0.1948E+00
  -4.951  0.3300E+00  0.1981E+00
  -4.941  0.3322E+00  0.2014E+00
  -4.931  0.3344E+00  0.2048E+00
  -4.921  0.3366E+00  0.2082E+00
  -4.911  0.3388E+00  0.2115E+00
  -4.901  0.3410E+00  0.2150E+00
  -4.891  0.3432E+00  0.2184E+00
  -4.881  0.3454E+00  0.2218E+00
  -4.871  0.3476E+00  0.2253E+00
  -4.861  0.3498E+00  0.2288E+00
  -4.851  0.3519E+00  0.2323E+00
  -4.841  0.3541E+00  0.2359E+00
  -4.831  0.3562E+00  0.2394E+00
  -4.821  0.3584E+00  0.2430E+00
  -4.811  0.3605E+00  0.2466E+00
  -4.801  0.3627E+00  0.2503E+00
  -4.791  0.3648E+00  0.2539E+00
  -4.781  0.3670E+00  0.2576E+00
  -4.771  0.3691E+00  0.2613E+00
  -4.761  0.3712E+00  0.2650E+00
  -4.751  0.3734E+00  0.2687E+00
  -4.741  0.3755E+00  0.2725E+00
  -4.731  0.3776E+00  0.2762E+00
  -4.721  0.3797E+00  0.2800E+00
  -4.711  0.3819E+00  0.2839E+00
  -4.701  0.3840E+00  0.2877E+00
  -4.691  0.3861E+00  0.2916E+00
  -4.681  0.3882E+00  0.2954E+00
  -4.671  0.3903E+00  0.2993E+00
  -4.661  0.3925E+00  0.3033E+00
  -4.651  0.3946E+00  0.3072E+00
  -4.641  0.3967E+00  0.3112E+00
  -4.631  0.3988E+00  0.3152E+00
  -4.621  0.4010E+00  0.3192E+00
  -4.611  0.4031E+00  0.3232E+00
  -4.601  0.4052E+00  0.3273E+00
  -4.591  0.4073E+00  0.3313E+00
  -4.581  0.4095E+00  0.3354E+00
  -4.571  0.4116E+00  0.3395E+00
  -4.561  0.4137E+00  0.3437E+00
  -4.551  0.4159E+00  0.3478E+00
  -4.541  0.4180E+00  0.3520E+00
  -4.531  0.4202E+00  0.3562E+00
  -4.521  0.4223E+00  0.3604E+00
  -4.511  0.4244E+00  0.3647E+00
  -4.501  0.4266E+00  0.3690E+00
  -4.491  0.4288E+00  0.3732E+00
  -4.481  0.4309E+00  0.3775E+00
  -4.471  0.4331E+00  0.3819E+00
  -4.461  0.4352E+00  0.3862E+00
  -4.451  0.4374E+00  0.3906E+00
  -4.441  0.4396E+00  0.3950E+00
  -4.431  0.4418E+00  0.3994E+00
  -4.421  0.4440E+00  0.4039E+00
  -4.411  0.4462E+00  0.4083E+00
  -4.401  0.4484E+00  0.4128E+00
  -4.391  0.4506E+00  0.4173E+00
  -4.381  0.4528E+00  0.4218E+00
  -4.371  0.4551E+00  0.4264E+00
  -4.361  0.4573E+00  0.4310E+00
  -4.351  0.4595E+00  0.4356E+00
  -4.341  0.4618E+00  0.4402E+00
  -4.331  0.4641E+00  0.4448E+00
  -4.321  0.4663E+00  0.4495E+00
  -4.311  0.4686E+00  0.4542E+00
  -4.301  0.4709E+00  0.4589E+00
  -4.291  0.4732E+00  0.4636E+00
  -4.281  0.4756E+00  0.4684E+00
  -4.271  0.4779E+00  0.4731E+00
  -4.261  0.4803E+00  0.4779E+00
  -4.251  0.4826E+00  0.4828E+00
  -4.241  0.4850E+00  0.4876E+00
  -4.231  0.4874E+00  0.4925E+00
  -4.221  0.4898E+00  0.4974E+00
  -4.211  0.4923E+00  0.5023E+00
  -4.201  0.4947E+00  0.5073E+00
  -4.191  0.4972E+00  0.5122E+00
  -4.181  0.4997E+00  0.5172E+00
  -4.171  0.5022E+00  0.5223E+00
  -4.161  0.5047E+00  0.5273E+00
  -4.151  0.5073E+00  0.5324E+00
  -4.141  0.5099E+00  0.5375E+00
  -4.131  0.5125E+00  0.5426E+00
  -4.121  0.5151E+00  0.5477E+00
  -4.111  0.5177E+00  0.5529E+00
  -4.101  0.5204E+00  0.5581E+00
  -4.091  0.5231E+00  0.5634E+00
  -4.081  0.5258E+00  0.5686E+00
  -4.071  0.5286E+00  0.5739E+00
  -4.061  0.5314E+00  0.5792E+00
  -4.051  0.5342E+00  0.5846E+00
  -4.041  0.5371E+00  0.5899E+00
  -4.031  0.5399E+00  0.5953E+00
  -4.021  0.5429E+00  0.6008E+00
  -4.011  0.5458E+00  0.6062E+00
  -4.001  0.5488E+00  0.6117E+00
  -3.991  0.5519E+00  0.6172E+00
  -3.981  0.5549E+00  0.6228E+00
  -3.971  0.5581E+00  0.6284E+00
  -3.961  0.5612E+00  0.6340E+00
  -3.951  0.5644E+00  0.6396E+00
  -3.941  0.5677E+00  0.6453E+00
  -3.931  0.5710E+00  0.6510E+00
  -3.921  0.5743E+00  0.6567E+00
  -3.911  0.5777E+00  0.6625E+00
  -3.901  0.5811E+00  0.6683E+00
  -3.891  0.5846E+00  0.6742E+00
  -3.881  0.5881E+00  0.6801E+00
  -3.871  0.5917E+00  0.6860E+00
  -3.861  0.5953E+00  0.6919E+00
  -3.851  0.5990E+00  0.6979E+00
  -3.841  0.6027E+00  0.7039E+00
  -3.831  0.6064E+00  0.7100E+00
  -3.821  0.6102E+00  0.7161E+00
  -3.811  0.6141E+00  0.7223E+00
  -3.801  0.6180E+00  0.7284E+00
  -3.791  0.6219E+00  0.7346E+00
  -3.781  0.6259E+00  0.7409E+00
  -3.771  0.6299E+00  0.7472E+00
  -3.761  0.6339E+00  0.7535E+00
  -3.751  0.6380E+00  0.7599E+00
  -3.741  0.6421E+00  0.7663E+00
  -3.731  0.6462E+00  0.7728E+00
  -3.721  0.6503E+00  0.7793E+00
  -3.711  0.6545E+00  0.7859E+00
  -3.701  0.6587E+00  0.7924E+00
  -3.691  0.6629E+00  0.7991E+00
  -3.681  0.6670E+00  0.8057E+00
  -3.671  0.6712E+00  0.8125E+00
  -3.661  0.6754E+00  0.8192E+00
  -3.651  0.6796E+00  0.8260E+00
  -3.641  0.6838E+00  0.8328E+00
  -3.631  0.6879E+00  0.8397E+00
  -3.621  0.6921E+00  0.8466E+00
  -3.611  0.6962E+00  0.8536E+00
  -3.601  0.7002E+00  0.8606E+00
  -3.591  0.7042E+00  0.8676E+00
  -3.581  0.7082E+00  0.8747E+00
  -3.571  0.7121E+00  0.8819E+00
  -3.561  0.7160E+00  0.8890E+00
  -3.551  0.7198E+00  0.8962E+00
  -3.541  0.7235E+00  0.9034E+00
  -3.531  0.7272E+00  0.9107E+00
  -3.521  0.7307E+00  0.9180E+00
  -3.511  0.7342E+00  0.9254E+00
  -3.501  0.7376E+00  0.9327E+00
  -3.491  0.7409E+00  0.9402E+00
  -3.481  0.7441E+00  0.9476E+00
  -3.471  0.7471E+00  0.9551E+00
  -3.461  0.7501E+00  0.9626E+00
  -3.451  0.7529E+00  0.9701E+00
  -3.441  0.7556E+00  0.9776E+00
  -3.431  0.7582E+00  0.9852E+00
  -3.421  0.7606E+00  0.9928E+00
  -3.411  0.7629E+00  0.1000E+01
  -3.401  0.7650E+00  0.1008E+01
  -3.391  0.7670E+00  0.1016E+01
  -3.381  0.7689E+00  0.1023E+01
  -3.371  0.7706E+00  0.1031E+01
  -3.361  0.7721E+00  0.1039E+01
  -3.351  0.7735E+00  0.1047E+01
  -3.341  0.7748E+00  0.1054E+01
  -3.331  0.7758E+00  0.1062E+01
  -3.321  0.7768E+00  0.1070E+01
  -3.311  0.7775E+00  0.1078E+01
  -3.301  0.7781E+00  0.1085E+01
  -3.291  0.7786E+00  0.1093E+01
  -3.281  0.7789E+00  0.1101E+01
  -3.271  0.7790E+00  0.1109E+01
  -3.261  0.7790E+00  0.1117E+01
  -3.251  0.7788E+00  0.1124E+01
  -3.241  0.7785E+00  0.1132E+01
  -3.231  0.7780E+00  0.1140E+01
  -3.221  0.7774E+00  0.1148E+01
  -3.211  0.7767E+00  0.1156E+01
  -3.201  0.7758E+00  0.1163E+01
  -3.191  0.7748E+00  0.1171E+01
  -3.181  0.7737E+00  0.1179E+01
  -3.171  0.7724E+00  0.1186E+01
  -3.161  0.7710E+00  0.1194E+01
  -3.151  0.7695E+00  0.1202E+01
  -3.141  0.7679E+00  0.1210E+01
  -3.131  0.7662E+00  0.1217E+01
  -3.121  0.7644E+00  0.1225E+01
  -3.111  0.7625E+00  0.1232E+01
  -3.101  0.7605E+00  0.1240E+01
  -3.091  0.7584E+00  0.1248E+01
  -3.081  0.7562E+00  0.1255E+01
  -3.071  0.7540E+00  0.1263E+01
  -3.061  0.7517E+00  0.1270E+01
  -3.051  0.7493E+00  0.1278E+01
  -3.041  0.7468E+00  0.1285E+01
  -3.031  0.7443E+00  0.1293E+01
  -3.021  0.7417E+00  0.1300E+01
  -3.011  0.7390E+00  0.1308E+01
  -3.001  0.7363E+00  0.1315E+01
  -2.991  0.7336E+00  0.1322E+01
  -2.981  0.7308E+00  0.1330E+01
  -2.971  0.7279E+00  0.1337E+01
  -2.961  0.7250E+00  0.1344E+01
  -2.951  0.7221E+00  0.1351E+01
  -2.941  0.7191E+00  0.1358E+01
  -2.931  0.7161E+00  0.1366E+01
  -2.921  0.7131E+00  0.1373E+01
  -2.911  0.7101E+00  0.1380E+01
  -2.901  0.7070E+00  0.1387E+01
  -2.891  0.7038E+00  0.1394E+01
  -2.881  0.7007E+00  0.1401E+01
  -2.871  0.6975E+00  0.1408E+01
  -2.861  0.6943E+00  0.1415E+01
  -2.851  0.6911E+00  0.1422E+01
  -2.841  0.6879E+00  0.1429E+01
  -2.831  0.6847E+00  0.1436E+01
  -2.821  0.6814E+00  0.1442E+01
  -2.811  0.6781E+00  0.1449E+01
  -2.801  0.6749E+00  0.1456E+01
  -2.791  0.6716E+00  0.1463E+01
  -2.781  0.6682E+00  0.1469E+01
  -2.771  0.6649E+00  0.1476E+01
  -2.761  0.6616E+00  0.1483E+01
  -2.751  0.6583E+00  0.1489E+01
  -2.741  0.6549E+00  0.1496E+01
  -2.731  0.6515E+00  0.1502E+01
  -2.721  0.6482E+00  0.1509E+01
  -2.711  0.6448E+00  0.1515E+01
  -2.701  0.6414E+00  0.1522E+01
  -2.691  0.6380E+00  0.1528E+01
  -2.681  0.6346E+00  0.1534E+01
  -2.671  0.6312E+00  0.1541E+01
  -2.661  0.6278E+00  0.1547E+01
  -2.651  0.6244E+00  0.1553E+01
  -2.641  0.6209E+00  0.1559E+01
  -2.631  0.6175E+00  0.1565E+01
  -2.621  0.6141E+00  0.1572E+01
  -2.611  0.6106E+00  0.1578E+01
  -2.601  0.6071E+00  0.1584E+01
  -2.591  0.6037E+00  0.1590E+01
  -2.581  0.6002E+00  0.1596E+01
  -2.571  0.5967E+00  0.1602E+01
  -2.561  0.5932E+00  0.1608E+01
  -2.551  0.5897E+00  0.1614E+01
  -2.541  0.5862E+00  0.1619E+01
  -2.531  0.5827E+00  0.1625E+01
  -2.521  0.5791E+00  0.1631E+01
  -2.511  0.5756E+00  0.1637E+01
  -2.501  0.5720E+00  0.1643E+01
  -2.491  0.5684E+00  0.1648E+01
  -2.481  0.5648E+00  0.1654E+01
  -2.471  0.5612E+00  0.1660E+01
  -2.461  0.5576E+00  0.1665E+01
  -2.451  0.5540E+00  0.1671E+01
  -2.441  0.5504E+00  0.1676E+01
  -2.431  0.5467E+00  0.1682E+01
  -2.421  0.5430E+00  0.1687E+01
  -2.411  0.5394E+00  0.1692E+01
  -2.401  0.5357E+00  0.1698E+01
  -2.391  0.5319E+00  0.1703E+01
  -2.381  0.5282E+00  0.1708E+01
  -2.371  0.5244E+00  0.1714E+01
  -2.361  0.5207E+00  0.1719E+01
  -2.351  0.5169E+00  0.1724E+01
  -2.341  0.5131E+00  0.1729E+01
  -2.331  0.5092E+00  0.1734E+01
  -2.321  0.5054E+00  0.1739E+01
  -2.311  0.5015E+00  0.1744E+01
  -2.301  0.4976E+00  0.1749E+01
  -2.291  0.4937E+00  0.1754E+01
  -2.281  0.4897E+00  0.1759E+01
  -2.271  0.4857E+00  0.1764E+01
  -2.261  0.4817E+00  0.1769E+01
  -2.251  0.4777E+00  0.1774E+01
  -2.241  0.4737E+00  0.1778E+01
  -2.231  0.4696E+00  0.1783E+01
  -2.221  0.4655E+00  0.1788E+01
  -2.211  0.4613E+00  0.1792E+01
  -2.201  0.4572E+00  0.1797E+01
  -2.191  0.4530E+00  0.1801E+01
  -2.181  0.4487E+00  0.1806E+01
  -2.171  0.4445E+00  0.1810E+01
  -2.161  0.4402E+00  0.1815E+01
  -2.151  0.4358E+00  0.1819E+01
  -2.141  0.4315E+00  0.1823E+01
  -2.131  0.4271E+00  0.1828E+01
  -2.121  0.4227E+00  0.1832E+01
  -2.111  0.4182E+00  0.1836E+01
  -2.101  0.4137E+00  0.1840E+01
  -2.091  0.4092E+00  0.1844E+01
  -2.081  0.4046E+00  0.1848E+01
  -2.071  0.4000E+00  0.1852E+01
  -2.061  0.3954E+00  0.1856E+01
  -2.051  0.3907E+00  0.1860E+01
  -2.041  0.3860E+00  0.1864E+01
  -2.031  0.3813E+00  0.1868E+01
  -2.021  0.3765E+00  0.1872E+01
  -2.011  0.3717E+00  0.1875E+01
  -2.001  0.3669E+00  0.1879E+01
  -1.991  0.3620E+00  0.1883E+01
  -1.981  0.3572E+00  0.1886E+01
  -1.971  0.3523E+00  0.1890E+01
  -1.961  0.3473E+00  0.1893E+01
  -1.951  0.3424E+00  0.1897E+01
  -1.941  0.3375E+00  0.1900E+01
  -1.931  0.3325E+00  0.1903E+01
  -1.921  0.3275E+00  0.1907E+01
  -1.911  0.3226E+00  0.1910E+01
  -1.901  0.3176E+00  0.1913E+01
  -1.891  0.3126E+00  0.1916E+01
  -1.881  0.3077E+00  0.1919E+01
  -1.871  0.3028E+00  0.1922E+01
  -1.861  0.2979E+00  0.1925E+01
  -1.851  0.2930E+00  0.1928E+01
  -1.841  0.2881E+00  0.1931E+01
  -1.831  0.2833E+00  0.1934E+01
  -1.821  0.2785E+00  0.1937E+01
  -1.811  0.2738E+00  0.1939E+01
  -1.801  0.2692E+00  0.1942E+01
  -1.791  0.2646E+00  0.1945E+01
  -1.781  0.2600E+00  0.1947E+01
  -1.771  0.2556E+00  0.1950E+01
  -1.761  0.2513E+00  0.1952E+01
  -1.751  0.2470E+00  0.1955E+01
  -1.741  0.2429E+00  0.1957E+01
  -1.731  0.2388E+00  0.1960E+01
  -1.721  0.2349E+00  0.1962E+01
  -1.711  0.2311E+00  0.1964E+01
  -1.701  0.2274E+00  0.1967E+01
  -1.691  0.2239E+00  0.1969E+01
  -1.681  0.2205E+00  0.1971E+01
  -1.671  0.2173E+00  0.1973E+01
  -1.661  0.2142E+00  0.1975E+01
  -1.651  0.2113E+00  0.1977E+01
  -1.641  0.2086E+00  0.1980E+01
  -1.631  0.2060E+00  0.1982E+01
  -1.621  0.2037E+00  0.1984E+01
  -1.611  0.2015E+00  0.1986E+01
  -1.601  0.1995E+00  0.1988E+01
  -1.591  0.1977E+00  0.1990E+01
  -1.581  0.1962E+00  0.1992E+01
  -1.571  0.1948E+00  0.1994E+01
  -1.561  0.1937E+00  0.1995E+01
  -1.551  0.1928E+00  0.1997E+01
  -1.541  0.1921E+00  0.1999E+01
  -1.531  0.1917E+00  0.2001E+01
  -1.521  0.1914E+00  0.2003E+01
  -1.511  0.1914E+00  0.2005E+01
  -1.501  0.1917E+00  0.2007E+01
  -1.491  0.1922E+00  0.2009E+01
  -1.481  0.1929E+00  0.2011E+01
  -1.471  0.1939E+00  0.2013E+01
  -1.461  0.1951E+00  0.2015E+01
  -1.451  0.1965E+00  0.2017E+01
  -1.441  0.1982E+00  0.2019E+01
  -1.431  0.2002E+00  0.2021E+01
  -1.421  0.2024E+00  0.2023E+01
  -1.411  0.2048E+00  0.2025E+01
  -1.401  0.2075E+00  0.2027E+01
  -1.391  0.2104E+00  0.2029E+01
  -1.381  0.2136E+00  0.2031E+01
  -1.371  0.2170E+00  0.2033E+01
  -1.361  0.2207E+00  0.2035E+01
  -1.351  0.2246E+00  0.2038E+01
  -1.341  0.2287E+00  0.2040E+01
  -1.331  0.2331E+00  0.2042E+01
  -1.321  0.2378E+00  0.2045E+01
  -1.311  0.2427E+00  0.2047E+01
  -1.301  0.2478E+00  0.2050E+01
  -1.291  0.2532E+00  0.2052E+01
  -1.281  0.2588E+00  0.2055E+01
  -1.271  0.2647E+00  0.2057E+01
  -1.261  0.2708E+00  0.2060E+01
  -1.251  0.2772E+00  0.2063E+01
  -1.241  0.2839E+00  0.2066E+01
  -1.231  0.2907E+00  0.2069E+01
  -1.221  0.2979E+00  0.2072E+01
  -1.211  0.3053E+00  0.2075E+01
  -1.201  0.3130E+00  0.2078E+01
  -1.191  0.3209E+00  0.2081E+01
  -1.181  0.3291E+00  0.2084E+01
  -1.171  0.3376E+00  0.2088E+01
  -1.161  0.3463E+00  0.2091E+01
  -1.151  0.3553E+00  0.2095E+01
  -1.141  0.3646E+00  0.2098E+01
  -1.131  0.3742E+00  0.2102E+01
  -1.121  0.3841E+00  0.2106E+01
  -1.111  0.3942E+00  0.2110E+01
  -1.101  0.4046E+00  0.2114E+01
  -1.091  0.4153E+00  0.2118E+01
  -1.081  0.4263E+00  0.2122E+01
  -1.071  0.4376E+00  0.2127E+01
  -1.061  0.4492E+00  0.2131E+01
  -1.051  0.4610E+00  0.2136E+01
  -1.041  0.4731E+00  0.2140E+01
  -1.031  0.4854E+00  0.2145E+01
  -1.021  0.4981E+00  0.2150E+01
  -1.011  0.5110E+00  0.2155E+01
  -1.001  0.5241E+00  0.2161E+01
  -0.991  0.5374E+00  0.2166E+01
  -0.981  0.5510E+00  0.2172E+01
  -0.971  0.5648E+00  0.2177E+01
  -0.961  0.5788E+00  0.2183E+01
  -0.951  0.5929E+00  0.2189E+01
  -0.941  0.6072E+00  0.2195E+01
  -0.931  0.6217E+00  0.2201E+01
  -0.921  0.6362E+00  0.2208E+01
  -0.911  0.6509E+00  0.2214E+01
  -0.901  0.6656E+00  0.2221E+01
  -0.891  0.6804E+00  0.2228E+01
  -0.881  0.6952E+00  0.2235E+01
  -0.871  0.7100E+00  0.2242E+01
  -0.861  0.7247E+00  0.2249E+01
  -0.851  0.7394E+00  0.2256E+01
  -0.841  0.7540E+00  0.2264E+01
  -0.831  0.7684E+00  0.2271E+01
  -0.821  0.7827E+00  0.2279E+01
  -0.811  0.7968E+00  0.2287E+01
  -0.801  0.8107E+00  0.2295E+01
  -0.791  0.8243E+00  0.2304E+01
  -0.781  0.8377E+00  0.2312E+01
  -0.771  0.8507E+00  0.2321E+01
  -0.761  0.8634E+00  0.2329E+01
  -0.751  0.8756E+00  0.2338E+01
  -0.741  0.8875E+00  0.2347E+01
  -0.731  0.8989E+00  0.2356E+01
  -0.721  0.9099E+00  0.2365E+01
  -0.711  0.9204E+00  0.2374E+01
  -0.701  0.9303E+00  0.2383E+01
  -0.691  0.9398E+00  0.2393E+01
  -0.681  0.9486E+00  0.2402E+01
  -0.671  0.9569E+00  0.2412E+01
  -0.661  0.9645E+00  0.2421E+01
  -0.651  0.9716E+00  0.2431E+01
  -0.641  0.9780E+00  0.2441E+01
  -0.631  0.9838E+00  0.2451E+01
  -0.621  0.9890E+00  0.2461E+01
  -0.611  0.9935E+00  0.2471E+01
  -0.601  0.9973E+00  0.2481E+01
  -0.591  0.1000E+01  0.2491E+01
  -0.581  0.1003E+01  0.2501E+01
  -0.571  0.1005E+01  0.2511E+01
  -0.561  0.1006E+01  0.2521E+01
  -0.551  0.1007E+01  0.2531E+01
  -0.541  0.1007E+01  0.2541E+01
  -0.531  0.1006E+01  0.2551E+01
  -0.521  0.1005E+01  0.2561E+01
  -0.511  0.1003E+01  0.2571E+01
  -0.501  0.1000E+01  0.2581E+01
  -0.491  0.9972E+00  0.2591E+01
  -0.481  0.9937E+00  0.2601E+01
  -0.471  0.9896E+00  0.2611E+01
  -0.461  0.9851E+00  0.2621E+01
  -0.451  0.9800E+00  0.2630E+01
  -0.441  0.9746E+00  0.2640E+01
  -0.431  0.9687E+00  0.2650E+01
  -0.421  0.9625E+00  0.2660E+01
  -0.411  0.9559E+00  0.2669E+01
  -0.401  0.9489E+00  0.2679E+01
  -0.391  0.9417E+00  0.2688E+01
  -0.381  0.9342E+00  0.2697E+01
  -0.371  0.9264E+00  0.2707E+01
  -0.361  0.9184E+00  0.2716E+01
  -0.351  0.9102E+00  0.2725E+01
  -0.341  0.9018E+00  0.2734E+01
  -0.331  0.8933E+00  0.2743E+01
  -0.321  0.8847E+00  0.2752E+01
  -0.311  0.8760E+00  0.2760E+01
  -0.301  0.8671E+00  0.2769E+01
  -0.291  0.8583E+00  0.2778E+01
  -0.281  0.8494E+00  0.2786E+01
  -0.271  0.8405E+00  0.2795E+01
  -0.261  0.8316E+00  0.2803E+01
  -0.251  0.8227E+00  0.2811E+01
  -0.241  0.8139E+00  0.2819E+01
  -0.231  0.8051E+00  0.2827E+01
  -0.221  0.7964E+00  0.2835E+01
  -0.211  0.7877E+00  0.2843E+01
  -0.201  0.7792E+00  0.2851E+01
  -0.191  0.7707E+00  0.2859E+01
  -0.181  0.7624E+00  0.2866E+01
  -0.171  0.7542E+00  0.2874E+01
  -0.161  0.7461E+00  0.2881E+01
  -0.151  0.7381E+00  0.2889E+01
  -0.141  0.7302E+00  0.2896E+01
  -0.131  0.7225E+00  0.2903E+01
  -0.121  0.7149E+00  0.2910E+01
  -0.111  0.7075E+00  0.2917E+01
  -0.101  0.7002E+00  0.2924E+01
  -0.091  0.6931E+00  0.2931E+01
  -0.081  0.6861E+00  0.2938E+01
  -0.071  0.6792E+00  0.2945E+01
  -0.061  0.6725E+00  0.2952E+01
  -0.051  0.6659E+00  0.2958E+01
  -0.041  0.6594E+00  0.2965E+01
  -0.031  0.6531E+00  0.2972E+01
  -0.021  0.6470E+00  0.2978E+01
  -0.011  0.6409E+00  0.2984E+01
  -0.001  0.6350E+00  0.2991E+01
   0.009  0.6292E+00  0.2997E+01
   0.019  0.6236E+00  0.3003E+01
   0.029  0.6180E+00  0.3009E+01
   0.039  0.6126E+00  0.3016E+01
   0.049  0.6072E+00  0.3022E+01
   0.059  0.6020E+00  0.3028E+01
   0.069  0.5969E+00  0.3034E+01
   0.079  0.5919E+00  0.3040E+01
   0.089  0.5870E+00  0.3045E+01
   0.099  0.5822E+00  0.3051E+01
   0.109  0.5775E+00  0.3057E+01
   0.119  0.5729E+00  0.3063E+01
   0.129  0.5683E+00  0.3068E+01
   0.139  0.5639E+00  0.3074E+01
   0.149  0.5595E+00  0.3080E+01
   0.159  0.5552E+00  0.3085E+01
   0.169  0.5510E+00  0.3091E+01
   0.179  0.5468E+00  0.3096E+01
   0.189  0.5428E+00  0.3102E+01
   0.199  0.5388E+00  0.3107E+01
   0.209  0.5348E+00  0.3112E+01
   0.219  0.5310E+00  0.3118E+01
   0.229  0.5271E+00  0.3123E+01
   0.239  0.5234E+00  0.3128E+01
   0.249  0.5197E+00  0.3133E+01
   0.259  0.5161E+00  0.3139E+01
   0.269  0.5125E+00  0.3144E+01
   0.279  0.5090E+00  0.3149E+01
   0.289  0.5055E+00  0.3154E+01
   0.299  0.5021E+00  0.3159E+01
   0.309  0.4987E+00  0.3164E+01
   0.319  0.4954E+00  0.3169E+01
   0.329  0.4921E+00  0.3174E+01
   0.339  0.4888E+00  0.3179E+01
   0.349  0.4856E+00  0.3183E+01
   0.359  0.4825E+00  0.3188E+01
   0.369  0.4794E+00  0.3193E+01
   0.379  0.4763E+00  0.3198E+01
   0.389  0.4733E+00  0.3203E+01
   0.399  0.4703E+00  0.3207E+01
   0.409  0.4673E+00  0.3212E+01
   0.419  0.4644E+00  0.3217E+01
   0.429  0.4615E+00  0.3221E+01
   0.439  0.4586E+00  0.3226E+01
   0.449  0.4558E+00  0.3230E+01
   0.459  0.4530E+00  0.3235E+01
   0.469  0.4502E+00  0.3239E+01
   0.479  0.4474E+00  0.3244E+01
   0.489  0.4447E+00  0.3248E+01
   0.499  0.4420E+00  0.3253E+01
   0.509  0.4393E+00  0.3257E+01
   0.519  0.4367E+00  0.3261E+01
   0.529  0.4341E+00  0.3266E+01
   0.539  0.4315E+00  0.3270E+01
   0.549  0.4289E+00  0.3274E+01
   0.559  0.4263E+00  0.3279E+01
   0.569  0.4238E+00  0.3283E+01
   0.579  0.4213E+00  0.3287E+01
   0.589  0.4188E+00  0.3291E+01
   0.599  0.4163E+00  0.3295E+01
   0.609  0.4139E+00  0.3300E+01
   0.619  0.4114E+00  0.3304E+01
   0.629  0.4090E+00  0.3308E+01
   0.639  0.4066E+00  0.3312E+01
   0.649  0.4042E+00  0.3316E+01
   0.659  0.4019E+00  0.3320E+01
   0.669  0.3995E+00  0.3324E+01
   0.679  0.3972E+00  0.3328E+01
   0.689  0.3949E+00  0.3332E+01
   0.699  0.3926E+00  0.3336E+01
   0.709  0.3904E+00  0.3340E+01
   0.719  0.3881E+00  0.3344E+01
   0.729  0.3859E+00  0.3347E+01
   0.739  0.3837E+00  0.3351E+01
   0.749  0.3815E+00  0.3355E+01
   0.759  0.3794E+00  0.3359E+01
   0.769  0.3772E+00  0.3363E+01
   0.779  0.3751E+00  0.3366E+01
   0.789  0.3730E+00  0.3370E+01
   0.799  0.3709E+00  0.3374E+01
   0.809  0.3689E+00  0.3378E+01
   0.819  0.3668E+00  0.3381E+01
   0.829  0.3648E+00  0.3385E+01
   0.839  0.3628E+00  0.3388E+01
   0.849  0.3609E+00  0.3392E+01
   0.859  0.3589E+00  0.3396E+01
   0.869  0.3570E+00  0.3399E+01
   0.879  0.3550E+00  0.3403E+01
   0.889  0.3532E+00  0.3406E+01
   0.899  0.3513E+00  0.3410E+01
   0.909  0.3494E+00  0.3413E+01
   0.919  0.3476E+00  0.3417E+01
   0.929  0.3458E+00  0.3420E+01
   0.939  0.3440E+00  0.3424E+01
   0.949  0.3422E+00  0.3427E+01
   0.959  0.3404E+00  0.3431E+01
   0.969  0.3387E+00  0.3434E+01
   0.979  0.3370E+00  0.3437E+01
   0.989  0.3353E+00  0.3441E+01
   0.999  0.3336E+00  0.3444E+01
   1.009  0.3319E+00  0.3447E+01
   1.019  0.3303E+00  0.3451E+01
   1.029  0.3286E+00  0.3454E+01
   1.039  0.3270E+00  0.3457E+01
   1.049  0.3255E+00  0.3460E+01
   1.059  0.3239E+00  0.3464E+01
   1.069  0.3224E+00  0.3467E+01
   1.079  0.3209E+00  0.3470E+01
   1.089  0.3194E+00  0.3473E+01
   1.099  0.3180E+00  0.3476E+01
   1.109  0.3166E+00  0.3480E+01
   1.119  0.3153E+00  0.3483E+01
   1.129  0.3140E+00  0.3486E+01
   1.139  0.3127E+00  0.3489E+01
   1.149  0.3115E+00  0.3492E+01
   1.159  0.3104E+00  0.3495E+01
   1.169  0.3093E+00  0.3498E+01
   1.179  0.3083E+00  0.3501E+01
   1.189  0.3074E+00  0.3505E+01
   1.199  0.3065E+00  0.3508E+01
   1.209  0.3057E+00  0.3511E+01
   1.219  0.3051E+00  0.3514E+01
   1.229  0.3045E+00  0.3517E+01
   1.239  0.3040E+00  0.3520E+01
   1.249  0.3037E+00  0.3523E+01
   1.259  0.3035E+00  0.3526E+01
   1.269  0.3034E+00  0.3529E+01
   1.279  0.3035E+00  0.3532E+01
   1.289  0.3037E+00  0.3535E+01
   1.299  0.3040E+00  0.3538E+01
   1.309  0.3046E+00  0.3541E+01
   1.319  0.3053E+00  0.3544E+01
   1.329  0.3062E+00  0.3547E+01
   1.339  0.3073E+00  0.3550E+01
   1.349  0.3086E+00  0.3553E+01
   1.359  0.3102E+00  0.3556E+01
   1.369  0.3119E+00  0.3560E+01
   1.379  0.3140E+00  0.3563E+01
   1.389  0.3162E+00  0.3566E+01
   1.399  0.3187E+00  0.3569E+01
   1.409  0.3215E+00  0.3572E+01
   1.419  0.3245E+00  0.3575E+01
   1.429  0.3278E+00  0.3579E+01
   1.439  0.3314E+00  0.3582E+01
   1.449  0.3354E+00  0.3585E+01
   1.459  0.3396E+00  0.3589E+01
   1.469  0.3441E+00  0.3592E+01
   1.479  0.3489E+00  0.3596E+01
   1.489  0.3541E+00  0.3599E+01
   1.499  0.3596E+00  0.3603E+01
   1.509  0.3654E+00  0.3607E+01
   1.519  0.3715E+00  0.3610E+01
   1.529  0.3780E+00  0.3614E+01
   1.539  0.3848E+00  0.3618E+01
   1.549  0.3920E+00  0.3622E+01
   1.559  0.3995E+00  0.3626E+01
   1.569  0.4073E+00  0.3630E+01
   1.579  0.4155E+00  0.3634E+01
   1.589  0.4240E+00  0.3638E+01
   1.599  0.4329E+00  0.3643E+01
   1.609  0.4420E+00  0.3647E+01
   1.619  0.4515E+00  0.3652E+01
   1.629  0.4613E+00  0.3656E+01
   1.639  0.4714E+00  0.3661E+01
   1.649  0.4818E+00  0.3666E+01
   1.659  0.4924E+00  0.3671E+01
   1.669  0.5034E+00  0.3676E+01
   1.679  0.5146E+00  0.3681E+01
   1.689  0.5261E+00  0.3686E+01
   1.699  0.5378E+00  0.3691E+01
   1.709  0.5497E+00  0.3697E+01
   1.719  0.5618E+00  0.3703E+01
   1.729  0.5741E+00  0.3708E+01
   1.739  0.5866E+00  0.3714E+01
   1.749  0.5992E+00  0.3720E+01
   1.759  0.6119E+00  0.3726E+01
   1.769  0.6248E+00  0.3732E+01
   1.779  0.6378E+00  0.3739E+01
   1.789  0.6508E+00  0.3745E+01
   1.799  0.6639E+00  0.3752E+01
   1.809  0.6770E+00  0.3759E+01
   1.819  0.6901E+00  0.3766E+01
   1.829  0.7032E+00  0.3773E+01
   1.839  0.7162E+00  0.3780E+01
   1.849  0.7292E+00  0.3787E+01
   1.859  0.7421E+00  0.3795E+01
   1.869  0.7549E+00  0.3802E+01
   1.879  0.7676E+00  0.3810E+01
   1.889  0.7801E+00  0.3818E+01
   1.899  0.7924E+00  0.3826E+01
   1.909  0.8046E+00  0.3834E+01
   1.919  0.8165E+00  0.3842E+01
   1.929  0.8282E+00  0.3850E+01
   1.939  0.8397E+00  0.3858E+01
   1.949  0.8508E+00  0.3867E+01
   1.959  0.8617E+00  0.3876E+01
   1.969  0.8723E+00  0.3884E+01
   1.979  0.8826E+00  0.3893E+01
   1.989  0.8926E+00  0.3902E+01
   1.999  0.9022E+00  0.3911E+01
   2.009  0.9114E+00  0.3920E+01
   2.019  0.9204E+00  0.3929E+01
   2.029  0.9289E+00  0.3939E+01
   2.039  0.9371E+00  0.3948E+01
   2.049  0.9448E+00  0.3957E+01
   2.059  0.9522E+00  0.3967E+01
   2.069  0.9593E+00  0.3977E+01
   2.079  0.9659E+00  0.3986E+01
   2.089  0.9721E+00  0.3996E+01
   2.099  0.9780E+00  0.4006E+01
   2.109  0.9835E+00  0.4016E+01
   2.119  0.9886E+00  0.4025E+01
   2.129  0.9934E+00  0.4035E+01
   2.139  0.9977E+00  0.4045E+01
   2.149  0.1002E+01  0.4055E+01
   2.159  0.1005E+01  0.4065E+01
   2.169  0.1009E+01  0.4076E+01
   2.179  0.1012E+01  0.4086E+01
   2.189  0.1015E+01  0.4096E+01
   2.199  0.1017E+01  0.4106E+01
   2.209  0.1019E+01  0.4116E+01
   2.219  0.1021E+01  0.4126E+01
   2.229  0.1023E+01  0.4137E+01
   2.239  0.1024E+01  0.4147E+01
   2.249  0.1025E+01  0.4157E+01
   2.259  0.1026E+01  0.4167E+01
   2.269  0.1027E+01  0.4178E+01
   2.279  0.1028E+01  0.4188E+01
   2.289  0.1028E+01  0.4198E+01
   2.299  0.1029E+01  0.4208E+01
   2.309  0.1029E+01  0.4219E+01
   2.319  0.1029E+01  0.4229E+01
   2.329  0.1029E+01  0.4239E+01
   2.339  0.1029E+01  0.4250E+01
   2.349  0.1029E+01  0.4260E+01
   2.359  0.1029E+01  0.4270E+01
   2.369  0.1029E+01  0.4281E+01
   2.379  0.1029E+01  0.4291E+01
   2.389  0.1028E+01  0.4301E+01
   2.399  0.1028E+01  0.4311E+01
   2.409  0.1028E+01  0.4322E+01
   2.419  0.1028E+01  0.4332E+01
   2.429  0.1028E+01  0.4342E+01
   2.439  0.1028E+01  0.4352E+01
   2.449  0.1028E+01  0.4363E+01
   2.459  0.1028E+01  0.4373E+01
   2.469  0.1028E+01  0.4383E+01
   2.479  0.1028E+01  0.4394E+01
   2.489  0.1028E+01  0.4404E+01
   2.499  0.1028E+01  0.4414E+01
   2.509  0.1029E+01  0.4424E+01
   2.519  0.1029E+01  0.4435E+01
   2.529  0.1030E+01  0.4445E+01
   2.539  0.1031E+01  0.4455E+01
   2.549  0.1031E+01  0.4466E+01
   2.559  0.1032E+01  0.4476E+01
   2.569  0.1033E+01  0.4486E+01
   2.579  0.1034E+01  0.4497E+01
   2.589  0.1035E+01  0.4507E+01
   2.599  0.1036E+01  0.4517E+01
   2.609  0.1038E+01  0.4528E+01
   2.619  0.1039E+01  0.4538E+01
   2.629  0.1040E+01  0.4549E+01
   2.639  0.1042E+01  0.4559E+01
   2.649  0.1044E+01  0.4569E+01
   2.659  0.1045E+01  0.4580E+01
   2.669  0.1047E+01  0.4590E+01
   2.679  0.1049E+01  0.4601E+01
   2.689  0.1051E+01  0.4611E+01
   2.699  0.1053E+01  0.4622E+01
   2.709  0.1055E+01  0.4632E+01
   2.719  0.1057E+01  0.4643E+01
   2.729  0.1060E+01  0.4654E+01
   2.739  0.1062E+01  0.4664E+01
   2.749  0.1065E+01  0.4675E+01
   2.759  0.1067E+01  0.4686E+01
   2.769  0.1070E+01  0.4696E+01
   2.779  0.1073E+01  0.4707E+01
   2.789  0.1076E+01  0.4718E+01
   2.799  0.1079E+01  0.4728E+01
   2.809  0.1082E+01  0.4739E+01
   2.819  0.1085E+01  0.4750E+01
   2.829  0.1089E+01  0.4761E+01
   2.839  0.1092E+01  0.4772E+01
   2.849  0.1096E+01  0.4783E+01
   2.859  0.1099E+01  0.4794E+01
   2.869  0.1103E+01  0.4805E+01
   2.879  0.1107E+01  0.4816E+01
   2.889  0.1111E+01  0.4827E+01
   2.899  0.1115E+01  0.4838E+01
   2.909  0.1119E+01  0.4849E+01
   2.919  0.1124E+01  0.4861E+01
   2.929  0.1128E+01  0.4872E+01
   2.939  0.1133E+01  0.4883E+01
   2.949  0.1138E+01  0.4895E+01
   2.959  0.1142E+01  0.4906E+01
   2.969  0.1147E+01  0.4918E+01
   2.979  0.1153E+01  0.4929E+01
   2.989  0.1158E+01  0.4941E+01
   2.999  0.1163E+01  0.4952E+01
   3.009  0.1169E+01  0.4964E+01
   3.019  0.1174E+01  0.4976E+01
   3.029  0.1180E+01  0.4988E+01
   3.039  0.1185E+01  0.4999E+01
   3.049  0.1191E+01  0.5011E+01
   3.059  0.1197E+01  0.5023E+01
   3.069  0.1203E+01  0.5035E+01
   3.079  0.1209E+01  0.5047E+01
   3.089  0.1215E+01  0.5060E+01
   3.099  0.1221E+01  0.5072E+01
   3.109  0.1228E+01  0.5084E+01
   3.119  0.1234E+01  0.5096E+01
   3.129  0.1240E+01  0.5109E+01
   3.139  0.1246E+01  0.5121E+01
   3.149  0.1252E+01  0.5134E+01
   3.159  0.1259E+01  0.5146E+01
   3.169  0.1265E+01  0.5159E+01
   3.179  0.1271E+01  0.5172E+01
   3.189  0.1277E+01  0.5184E+01
   3.199  0.1283E+01  0.5197E+01
   3.209  0.1289E+01  0.5210E+01
   3.219  0.1295E+01  0.5223E+01
   3.229  0.1301E+01  0.5236E+01
   3.239  0.1306E+01  0.5249E+01
   3.249  0.1312E+01  0.5262E+01
   3.259  0.1317E+01  0.5276E+01
   3.269  0.1323E+01  0.5289E+01
   3.279  0.1328E+01  0.5302E+01
   3.289  0.1333E+01  0.5315E+01
   3.299  0.1338E+01  0.5329E+01
   3.309  0.1343E+01  0.5342E+01
   3.319  0.1347E+01  0.5356E+01
   3.329  0.1352E+01  0.5369E+01
   3.339  0.1356E+01  0.5383E+01
   3.349  0.1360E+01  0.5396E+01
   3.359  0.1364E+01  0.5410E+01
   3.369  0.1367E+01  0.5424E+01
   3.379  0.1371E+01  0.5437E+01
   3.389  0.1374E+01  0.5451E+01
   3.399  0.1377E+01  0.5465E+01
   3.409  0.1380E+01  0.5479E+01
   3.419  0.1383E+01  0.5492E+01
   3.429  0.1385E+01  0.5506E+01
   3.439  0.1387E+01  0.5520E+01
   3.449  0.1390E+01  0.5534E+01
   3.459  0.1392E+01  0.5548E+01
   3.469  0.1393E+01  0.5562E+01
   3.479  0.1395E+01  0.5576E+01
   3.489  0.1396E+01  0.5590E+01
   3.499  0.1398E+01  0.5604E+01
   3.509  0.1399E+01  0.5618E+01
   3.519  0.1400E+01  0.5632E+01
   3.529  0.1401E+01  0.5646E+01
   3.539  0.1401E+01  0.5660E+01
   3.549  0.1402E+01  0.5674E+01
   3.559  0.1402E+01  0.5688E+01
   3.569  0.1402E+01  0.5702E+01
   3.579  0.1402E+01  0.5716E+01
   3.589  0.1402E+01  0.5730E+01
   3.599  0.1402E+01  0.5744E+01
   3.609  0.1402E+01  0.5758E+01
   3.619  0.1401E+01  0.5772E+01
   3.629  0.1401E+01  0.5786E+01
   3.639  0.1400E+01  0.5800E+01
   3.649  0.1399E+01  0.5814E+01
   3.659  0.1398E+01  0.5828E+01
   3.669  0.1397E+01  0.5842E+01
   3.679  0.1396E+01  0.5856E+01
   3.689  0.1395E+01  0.5870E+01
   3.699  0.1394E+01  0.5884E+01
   3.709  0.1392E+01  0.5898E+01
   3.719  0.1391E+01  0.5912E+01
   3.729  0.1389E+01  0.5926E+01
   3.739  0.1388E+01  0.5939E+01
   3.749  0.1386E+01  0.5953E+01
   3.759  0.1384E+01  0.5967E+01
   3.769  0.1382E+01  0.5981E+01
   3.779  0.1380E+01  0.5995E+01
   3.789  0.1378E+01  0.6009E+01
   3.799  0.1376E+01  0.6022E+01
   3.809  0.1374E+01  0.6036E+01
   3.819  0.1372E+01  0.6050E+01
   3.829  0.1369E+01  0.6063E+01
   3.839  0.1367E+01  0.6077E+01
   3.849  0.1365E+01  0.6091E+01
   3.859  0.1362E+01  0.6104E+01
   3.869  0.1360E+01  0.6118E+01
   3.879  0.1357E+01  0.6132E+01
   3.889  0.1355E+01  0.6145E+01
   3.899  0.1352E+01  0.6159E+01
   3.909  0.1350E+01  0.6172E+01
   3.919  0.1347E+01  0.6186E+01
   3.929  0.1345E+01  0.6199E+01
   3.939  0.1342E+01  0.6212E+01
   3.949  0.1340E+01  0.6226E+01
   3.959  0.1337E+01  0.6239E+01
   3.969  0.1335E+01  0.6253E+01
   3.979  0.1332E+01  0.6266E+01
   3.989  0.1329E+01  0.6279E+01
   3.999  0.1327E+01  0.6292E+01
   4.009  0.1324E+01  0.6306E+01
   4.019  0.1322E+01  0.6319E+01
   4.029  0.1319E+01  0.6332E+01
   4.039  0.1317E+01  0.6345E+01
   4.049  0.1314E+01  0.6358E+01
   4.059  0.1311E+01  0.6372E+01
   4.069  0.1309E+01  0.6385E+01
   4.079  0.1306E+01  0.6398E+01
   4.089  0.1304E+01  0.6411E+01
   4.099  0.1301E+01  0.6424E+01
   4.109  0.1299E+01  0.6437E+01
   4.119  0.1296E+01  0.6450E+01
   4.129  0.1294E+01  0.6463E+01
   4.139  0.1291E+01  0.6476E+01
   4.149  0.1288E+01  0.6488E+01
   4.159  0.1286E+01  0.6501E+01
   4.169  0.1283E+01  0.6514E+01
   4.179  0.1281E+01  0.6527E+01
   4.189  0.1278E+01  0.6540E+01
   4.199  0.1276E+01  0.6552E+01
   4.209  0.1273E+01  0.6565E+01
   4.219  0.1271E+01  0.6578E+01
   4.229  0.1268E+01  0.6591E+01
   4.239  0.1265E+01  0.6603E+01
   4.249  0.1263E+01  0.6616E+01
   4.259  0.1260E+01  0.6628E+01
   4.269  0.1258E+01  0.6641E+01
   4.279  0.1255E+01  0.6654E+01
   4.289  0.1252E+01  0.6666E+01
   4.299  0.1250E+01  0.6679E+01
   4.309  0.1247E+01  0.6691E+01
   4.319  0.1245E+01  0.6703E+01
   4.329  0.1242E+01  0.6716E+01
   4.339  0.1239E+01  0.6728E+01
   4.349  0.1237E+01  0.6741E+01
   4.359  0.1234E+01  0.6753E+01
   4.369  0.1231E+01  0.6765E+01
   4.379  0.1229E+01  0.6778E+01
   4.389  0.1226E+01  0.6790E+01
   4.399  0.1224E+01  0.6802E+01
   4.409  0.1221E+01  0.6814E+01
   4.419  0.1218E+01  0.6827E+01
   4.429  0.1216E+01  0.6839E+01
   4.439  0.1213E+01  0.6851E+01
   4.449  0.1210E+01  0.6863E+01
   4.459  0.1208E+01  0.6875E+01
   4.469  0.1205E+01  0.6887E+01
   4.479  0.1202E+01  0.6899E+01
   4.489  0.1200E+01  0.6911E+01
   4.499  0.1197E+01  0.6923E+01
   4.509  0.1194E+01  0.6935E+01
   4.519  0.1191E+01  0.6947E+01
   4.529  0.1188E+01  0.6959E+01
   4.539  0.1185E+01  0.6971E+01
   4.549  0.1182E+01  0.6982E+01
   4.559  0.1179E+01  0.6994E+01
   4.569  0.1176E+01  0.7006E+01
   4.579  0.1173E+01  0.7018E+01
   4.589  0.1170E+01  0.7029E+01
   4.599  0.1167E+01  0.7041E+01
   4.609  0.1163E+01  0.7053E+01
   4.619  0.1160E+01  0.7064E+01
   4.629  0.1156E+01  0.7076E+01
   4.639  0.1153E+01  0.7087E+01
   4.649  0.1149E+01  0.7099E+01
   4.659  0.1145E+01  0.7110E+01
   4.669  0.1141E+01  0.7122E+01
   4.679  0.1137E+01  0.7133E+01
   4.689  0.1133E+01  0.7144E+01
   4.699  0.1128E+01  0.7156E+01
   4.709  0.1124E+01  0.7167E+01
   4.719  0.1119E+01  0.7178E+01
   4.729  0.1114E+01  0.7189E+01
   4.739  0.1109E+01  0.7200E+01
   4.749  0.1104E+01  0.7211E+01
   4.759  0.1099E+01  0.7222E+01
   4.769  0.1093E+01  0.7233E+01
   4.779  0.1088E+01  0.7244E+01
   4.789  0.1082E+01  0.7255E+01
   4.799  0.1076E+01  0.7266E+01
   4.809  0.1070E+01  0.7277E+01
   4.819  0.1063E+01  0.7287E+01
   4.829  0.1057E+01  0.7298E+01
   4.839  0.1050E+01  0.7308E+01
   4.849  0.1043E+01  0.7319E+01
   4.859  0.1036E+01  0.7329E+01
   4.869  0.1029E+01  0.7339E+01
   4.879  0.1022E+01  0.7350E+01
   4.889  0.1014E+01  0.7360E+01
   4.899  0.1006E+01  0.7370E+01
   4.909  0.9984E+00  0.7380E+01
   4.919  0.9903E+00  0.7390E+01
   4.929  0.9821E+00  0.7399E+01
   4.939  0.9737E+00  0.7409E+01
   4.949  0.9652E+00  0.7419E+01
   4.959  0.9565E+00  0.7428E+01
   4.969  0.9477E+00  0.7438E+01
   4.979  0.9388E+00  0.7447E+01
   4.989  0.9297E+00  0.7457E+01
   4.999  0.9206E+00  0.7466E+01
   5.009  0.9113E+00  0.7475E+01
   5.019  0.9020E+00  0.7484E+01
   5.029  0.8926E+00  0.7493E+01
   5.039  0.8830E+00  0.7502E+01
   5.049  0.8735E+00  0.7510E+01
   5.059  0.8638E+00  0.7519E+01
   5.069  0.8541E+00  0.7528E+01
   5.079  0.8444E+00  0.7536E+01
   5.089  0.8346E+00  0.7544E+01
   5.099  0.8248E+00  0.7553E+01
   5.109  0.8150E+00  0.7561E+01
   5.119  0.8051E+00  0.7569E+01
   5.129  0.7953E+00  0.7577E+01
   5.139  0.7854E+00  0.7585E+01
   5.149  0.7756E+00  0.7592E+01
   5.159  0.7658E+00  0.7600E+01
   5.169  0.7560E+00  0.7608E+01
   5.179  0.7462E+00  0.7615E+01
   5.189  0.7365E+00  0.7622E+01
   5.199  0.7268E+00  0.7630E+01
   5.209  0.7171E+00  0.7637E+01
   5.219  0.7075E+00  0.7644E+01
   5.229  0.6980E+00  0.7651E+01
   5.239  0.6885E+00  0.7658E+01
   5.249  0.6791E+00  0.7665E+01
   5.259  0.6697E+00  0.7671E+01
   5.269  0.6604E+00  0.7678E+01
   5.279  0.6512E+00  0.7684E+01
   5.289  0.6421E+00  0.7691E+01
   5.299  0.6330E+00  0.7697E+01
   5.309  0.6240E+00  0.7703E+01
   5.319  0.6151E+00  0.7710E+01
   5.329  0.6063E+00  0.7716E+01
   5.339  0.5976E+00  0.7722E+01
   5.349  0.5889E+00  0.7727E+01
   5.359  0.5804E+00  0.7733E+01
   5.369  0.5719E+00  0.7739E+01
   5.379  0.5635E+00  0.7745E+01
   5.389  0.5552E+00  0.7750E+01
   5.399  0.5470E+00  0.7756E+01
   5.409  0.5388E+00  0.7761E+01
   5.419  0.5308E+00  0.7766E+01
   5.429  0.5228E+00  0.7772E+01
   5.439  0.5150E+00  0.7777E+01
   5.449  0.5072E+00  0.7782E+01
   5.459  0.4995E+00  0.7787E+01
   5.469  0.4919E+00  0.7792E+01
   5.479  0.4844E+00  0.7797E+01
   5.489  0.4769E+00  0.7801E+01
   5.499  0.4696E+00  0.7806E+01
   5.509  0.4623E+00  0.7811E+01
   5.519  0.4551E+00  0.7815E+01
   5.529  0.4480E+00  0.7820E+01
   5.539  0.4410E+00  0.7824E+01
   5.549  0.4340E+00  0.7828E+01
   5.559  0.4271E+00  0.7833E+01
   5.569  0.4203E+00  0.7837E+01
   5.579  0.4136E+00  0.7841E+01
   5.589  0.4070E+00  0.7845E+01
   5.599  0.4004E+00  0.7849E+01
   5.609  0.3939E+00  0.7853E+01
   5.619  0.3875E+00  0.7857E+01
   5.629  0.3811E+00  0.7861E+01
   5.639  0.3749E+00  0.7864E+01
   5.649  0.3686E+00  0.7868E+01
   5.659  0.3625E+00  0.7872E+01
   5.669  0.3564E+00  0.7875E+01
   5.679  0.3503E+00  0.7879E+01
   5.689  0.3444E+00  0.7882E+01
   5.699  0.3384E+00  0.7886E+01
   5.709  0.3325E+00  0.7889E+01
   5.719  0.3267E+00  0.7892E+01
   5.729  0.3209E+00  0.7895E+01
   5.739  0.3152E+00  0.7899E+01
   5.749  0.3095E+00  0.7902E+01
   5.759  0.3038E+00  0.7905E+01
   5.769  0.2982E+00  0.7908E+01
   5.779  0.2926E+00  0.7911E+01
   5.789  0.2871E+00  0.7914E+01
   5.799  0.2816E+00  0.7916E+01
   5.809  0.2761E+00  0.7919E+01
   5.819  0.2706E+00  0.7922E+01
   5.829  0.2652E+00  0.7924E+01
   5.839  0.2597E+00  0.7927E+01
   5.849  0.2543E+00  0.7930E+01
   5.859  0.2490E+00  0.7932E+01
   5.869  0.2436E+00  0.7935E+01
   5.879  0.2383E+00  0.7937E+01
   5.889  0.2330E+00  0.7939E+01
   5.899  0.2276E+00  0.7942E+01
   5.909  0.2224E+00  0.7944E+01
   5.919  0.2171E+00  0.7946E+01
   5.929  0.2118E+00  0.7948E+01
   5.939  0.2066E+00  0.7950E+01
   5.949  0.2014E+00  0.7952E+01
   5.959  0.1962E+00  0.7954E+01
   5.969  0.1911E+00  0.7956E+01
   5.979  0.1859E+00  0.7958E+01
   5.989  0.1808E+00  0.7960E+01
   5.999  0.1757E+00  0.7961E+01
   6.009  0.1707E+00  0.7963E+01
   6.019  0.1657E+00  0.7965E+01
   6.029  0.1607E+00  0.7966E+01
   6.039  0.1558E+00  0.7968E+01
   6.049  0.1509E+00  0.7969E+01
   6.059  0.1461E+00  0.7971E+01
   6.069  0.1413E+00  0.7972E+01
   6.079  0.1366E+00  0.7974E+01
   6.089  0.1320E+00  0.7975E+01
   6.099  0.1274E+00  0.7976E+01
   6.109  0.1229E+00  0.7978E+01
   6.119  0.1184E+00  0.7979E+01
   6.129  0.1141E+00  0.7980E+01
   6.139  0.1098E+00  0.7981E+01
   6.149  0.1056E+00  0.7982E+01
   6.159  0.1015E+00  0.7983E+01
   6.169  0.9754E-01  0.7984E+01
   6.179  0.9364E-01  0.7985E+01
   6.189  0.8985E-01  0.7986E+01
   6.199  0.8617E-01  0.7987E+01
   6.209  0.8261E-01  0.7988E+01
   6.219  0.7916E-01  0.7988E+01
   6.229  0.7583E-01  0.7989E+01
   6.239  0.7262E-01  0.7990E+01
   6.249  0.6954E-01  0.7990E+01
   6.259  0.6660E-01  0.7991E+01
   6.269  0.6378E-01  0.7992E+01
   6.279  0.6111E-01  0.7992E+01
   6.289  0.5857E-01  0.7993E+01
   6.299  0.5618E-01  0.7994E+01
   6.309  0.5394E-01  0.7994E+01
   6.319  0.5184E-01  0.7995E+01
   6.329  0.4989E-01  0.7995E+01
   6.339  0.4810E-01  0.7996E+01
   6.349  0.4646E-01  0.7996E+01
   6.359  0.4498E-01  0.7996E+01
   6.369  0.4366E-01  0.7997E+01
   6.379  0.4250E-01  0.7997E+01
   6.389  0.4150E-01  0.7998E+01
   6.399  0.4067E-01  0.7998E+01
   6.409  0.4001E-01  0.7999E+01
   6.419  0.3951E-01  0.7999E+01
   6.429  0.3918E-01  0.7999E+01
   6.439  0.3902E-01  0.8000E+01
   6.449  0.3903E-01  0.8000E+01
   6.459  0.3921E-01  0.8001E+01
   6.469  0.3956E-01  0.8001E+01
   6.479  0.4009E-01  0.8001E+01
   6.489  0.4079E-01  0.8002E+01
   6.499  0.4167E-01  0.8002E+01
   6.509  0.4272E-01  0.8003E+01
   6.519  0.4394E-01  0.8003E+01
   6.529  0.4534E-01  0.8003E+01
   6.539  0.4692E-01  0.8004E+01
   6.549  0.4867E-01  0.8004E+01
   6.559  0.5060E-01  0.8005E+01
   6.569  0.5270E-01  0.8005E+01
   6.579  0.5497E-01  0.8006E+01
   6.589  0.5741E-01  0.8007E+01
   6.599  0.6003E-01  0.8007E+01
   6.609  0.6282E-01  0.8008E+01
   6.619  0.6578E-01  0.8008E+01
   6.629  0.6890E-01  0.8009E+01
   6.639  0.7219E-01  0.8010E+01
   6.649  0.7565E-01  0.8011E+01
   6.659  0.7926E-01  0.8011E+01
   6.669  0.8304E-01  0.8012E+01
   6.679  0.8697E-01  0.8013E+01
   6.689  0.9106E-01  0.8014E+01
   6.699  0.9529E-01  0.8015E+01
   6.709  0.9968E-01  0.8016E+01
   6.719  0.1042E+00  0.8017E+01
   6.729  0.1089E+00  0.8018E+01
   6.739  0.1137E+00  0.8019E+01
   6.749  0.1186E+00  0.8020E+01
   6.759  0.1237E+00  0.8022E+01
   6.769  0.1289E+00  0.8023E+01
   6.779  0.1342E+00  0.8024E+01
   6.789  0.1396E+00  0.8026E+01
   6.799  0.1451E+00  0.8027E+01
   6.809  0.1507E+00  0.8029E+01
   6.819  0.1565E+00  0.8030E+01
   6.829  0.1623E+00  0.8032E+01
   6.839  0.1682E+00  0.8034E+01
   6.849  0.1742E+00  0.8035E+01
   6.859  0.1802E+00  0.8037E+01
   6.869  0.1863E+00  0.8039E+01
   6.879  0.1925E+00  0.8041E+01
   6.889  0.1988E+00  0.8043E+01
   6.899  0.2051E+00  0.8045E+01
   6.909  0.2114E+00  0.8047E+01
   6.919  0.2177E+00  0.8049E+01
   6.929  0.2241E+00  0.8051E+01
   6.939  0.2306E+00  0.8054E+01
   6.949  0.2370E+00  0.8056E+01
   6.959  0.2434E+00  0.8059E+01
   6.969  0.2499E+00  0.8061E+01
   6.979  0.2563E+00  0.8064E+01
   6.989  0.2628E+00  0.8066E+01
   6.999  0.2692E+00  0.8069E+01
   7.009  0.2757E+00  0.8072E+01
   7.019  0.2821E+00  0.8075E+01
   7.029  0.2884E+00  0.8077E+01
   7.039  0.2948E+00  0.8080E+01
   7.049  0.3011E+00  0.8083E+01
   7.059  0.3073E+00  0.8086E+01
   7.069  0.3136E+00  0.8090E+01
   7.079  0.3198E+00  0.8093E+01
   7.089  0.3259E+00  0.8096E+01
   7.099  0.3320E+00  0.8099E+01
   7.109  0.3380E+00  0.8103E+01
   7.119  0.3440E+00  0.8106E+01
   7.129  0.3500E+00  0.8110E+01
   7.139  0.3559E+00  0.8113E+01
   7.149  0.3617E+00  0.8117E+01
   7.159  0.3675E+00  0.8121E+01
   7.169  0.3732E+00  0.8124E+01
   7.179  0.3789E+00  0.8128E+01
   7.189  0.3845E+00  0.8132E+01
   7.199  0.3901E+00  0.8136E+01
   7.209  0.3957E+00  0.8140E+01
   7.219  0.4012E+00  0.8144E+01
   7.229  0.4066E+00  0.8148E+01
   7.239  0.4121E+00  0.8152E+01
   7.249  0.4175E+00  0.8156E+01
   7.259  0.4229E+00  0.8160E+01
   7.269  0.4282E+00  0.8165E+01
   7.279  0.4336E+00  0.8169E+01
   7.289  0.4389E+00  0.8173E+01
   7.299  0.4443E+00  0.8178E+01
   7.309  0.4496E+00  0.8182E+01
   7.319  0.4549E+00  0.8187E+01
   7.329  0.4603E+00  0.8191E+01
   7.339  0.4657E+00  0.8196E+01
   7.349  0.4711E+00  0.8201E+01
   7.359  0.4765E+00  0.8206E+01
   7.369  0.4820E+00  0.8210E+01
   7.379  0.4875E+00  0.8215E+01
   7.389  0.4930E+00  0.8220E+01
   7.399  0.4986E+00  0.8225E+01
   7.409  0.5043E+00  0.8230E+01
   7.419  0.5100E+00  0.8235E+01
   7.429  0.5158E+00  0.8240E+01
   7.439  0.5216E+00  0.8246E+01
   7.449  0.5275E+00  0.8251E+01
   7.459  0.5335E+00  0.8256E+01
   7.469  0.5396E+00  0.8262E+01
   7.479  0.5457E+00  0.8267E+01
   7.489  0.5520E+00  0.8273E+01
   7.499  0.5583E+00  0.8278E+01
   7.509  0.5646E+00  0.8284E+01
   7.519  0.5711E+00  0.8290E+01
   7.529  0.5777E+00  0.8295E+01
   7.539  0.5843E+00  0.8301E+01
   7.549  0.5910E+00  0.8307E+01
   7.559  0.5978E+00  0.8313E+01
   7.569  0.6047E+00  0.8319E+01
   7.579  0.6117E+00  0.8325E+01
   7.589  0.6187E+00  0.8331E+01
   7.599  0.6259E+00  0.8338E+01
   7.609  0.6331E+00  0.8344E+01
   7.619  0.6403E+00  0.8350E+01
   7.629  0.6477E+00  0.8357E+01
   7.639  0.6550E+00  0.8364E+01
   7.649  0.6625E+00  0.8370E+01
   7.659  0.6700E+00  0.8377E+01
   7.669  0.6776E+00  0.8384E+01
   7.679  0.6852E+00  0.8390E+01
   7.689  0.6929E+00  0.8397E+01
   7.699  0.7006E+00  0.8404E+01
   7.709  0.7084E+00  0.8411E+01
   7.719  0.7162E+00  0.8419E+01
   7.729  0.7241E+00  0.8426E+01
   7.739  0.7319E+00  0.8433E+01
   7.749  0.7399E+00  0.8441E+01
   7.759  0.7478E+00  0.8448E+01
   7.769  0.7558E+00  0.8456E+01
   7.779  0.7638E+00  0.8463E+01
   7.789  0.7719E+00  0.8471E+01
   7.799  0.7799E+00  0.8479E+01
   7.809  0.7880E+00  0.8487E+01
   7.819  0.7962E+00  0.8495E+01
   7.829  0.8043E+00  0.8503E+01
   7.839  0.8125E+00  0.8511E+01
   7.849  0.8208E+00  0.8519E+01
   7.859  0.8290E+00  0.8527E+01
   7.869  0.8373E+00  0.8536E+01
   7.879  0.8457E+00  0.8544E+01
   7.889  0.8540E+00  0.8553E+01
   7.899  0.8625E+00  0.8561E+01
   7.909  0.8709E+00  0.8570E+01
   7.919  0.8795E+00  0.8579E+01
   7.929  0.8880E+00  0.8588E+01
   7.939  0.8967E+00  0.8597E+01
   7.949  0.9054E+00  0.8606E+01
   7.959  0.9142E+00  0.8615E+01
   7.969  0.9230E+00  0.8624E+01
   7.979  0.9320E+00  0.8633E+01
   7.989  0.9410E+00  0.8643E+01
   7.999  0.9501E+00  0.8652E+01
   8.009  0.9593E+00  0.8662E+01
   8.019  0.9685E+00  0.8672E+01
   8.029  0.9779E+00  0.8681E+01
   8.039  0.9874E+00  0.8691E+01
   8.049  0.9969E+00  0.8701E+01
   8.059  0.1007E+01  0.8711E+01
   8.069  0.1016E+01  0.8721E+01
   8.079  0.1026E+01  0.8732E+01
   8.089  0.1036E+01  0.8742E+01
   8.099  0.1046E+01  0.8753E+01
   8.109  0.1056E+01  0.8763E+01
   8.119  0.1067E+01  0.8774E+01
   8.129  0.1077E+01  0.8785E+01
   8.139  0.1088E+01  0.8795E+01
   8.149  0.1098E+01  0.8806E+01
   8.159  0.1109E+01  0.8817E+01
   8.169  0.1119E+01  0.8829E+01
   8.179  0.1130E+01  0.8840E+01
   8.189  0.1141E+01  0.8851E+01
   8.199  0.1152E+01  0.8863E+01
   8.209  0.1162E+01  0.8875E+01
   8.219  0.1173E+01  0.8886E+01
   8.229  0.1184E+01  0.8898E+01
   8.239  0.1195E+01  0.8910E+01
   8.249  0.1206E+01  0.8922E+01
   8.259  0.1216E+01  0.8934E+01
   8.269  0.1227E+01  0.8947E+01
   8.279  0.1237E+01  0.8959E+01
   8.289  0.1248E+01  0.8971E+01
   8.299  0.1258E+01  0.8984E+01
   8.309  0.1268E+01  0.8997E+01
   8.319  0.1278E+01  0.9009E+01
   8.329  0.1288E+01  0.9022E+01
   8.339  0.1298E+01  0.9035E+01
   8.349  0.1307E+01  0.9048E+01
   8.359  0.1316E+01  0.9062E+01
   8.369  0.1325E+01  0.9075E+01
   8.379  0.1334E+01  0.9088E+01
   8.389  0.1342E+01  0.9102E+01
   8.399  0.1350E+01  0.9115E+01
   8.409  0.1358E+01  0.9129E+01
   8.419  0.1365E+01  0.9142E+01
   8.429  0.1372E+01  0.9156E+01
   8.439  0.1379E+01  0.9170E+01
   8.449  0.1385E+01  0.9184E+01
   8.459  0.1391E+01  0.9198E+01
   8.469  0.1397E+01  0.9212E+01
   8.479  0.1402E+01  0.9226E+01
   8.489  0.1406E+01  0.9240E+01
   8.499  0.1410E+01  0.9254E+01
   8.509  0.1414E+01  0.9268E+01
   8.519  0.1417E+01  0.9282E+01
   8.529  0.1420E+01  0.9296E+01
   8.539  0.1422E+01  0.9310E+01
   8.549  0.1424E+01  0.9325E+01
   8.559  0.1425E+01  0.9339E+01
   8.569  0.1426E+01  0.9353E+01
   8.579  0.1426E+01  0.9367E+01
   8.589  0.1426E+01  0.9382E+01
   8.599  0.1426E+01  0.9396E+01
   8.609  0.1425E+01  0.9410E+01
   8.619  0.1423E+01  0.9424E+01
   8.629  0.1422E+01  0.9439E+01
   8.639  0.1419E+01  0.9453E+01
   8.649  0.1417E+01  0.9467E+01
   8.659  0.1413E+01  0.9481E+01
   8.669  0.1410E+01  0.9495E+01
   8.679  0.1406E+01  0.9509E+01
   8.689  0.1402E+01  0.9523E+01
   8.699  0.1398E+01  0.9537E+01
   8.709  0.1393E+01  0.9551E+01
   8.719  0.1388E+01  0.9565E+01
   8.729  0.1382E+01  0.9579E+01
   8.739  0.1377E+01  0.9593E+01
   8.749  0.1371E+01  0.9606E+01
   8.759  0.1365E+01  0.9620E+01
   8.769  0.1359E+01  0.9634E+01
   8.779  0.1352E+01  0.9647E+01
   8.789  0.1346E+01  0.9661E+01
   8.799  0.1339E+01  0.9674E+01
   8.809  0.1333E+01  0.9687E+01
   8.819  0.1326E+01  0.9701E+01
   8.829  0.1319E+01  0.9714E+01
   8.839  0.1312E+01  0.9727E+01
   8.849  0.1306E+01  0.9740E+01
   8.859  0.1299E+01  0.9753E+01
   8.869  0.1293E+01  0.9766E+01
   8.879  0.1286E+01  0.9779E+01
   8.889  0.1280E+01  0.9792E+01
   8.899  0.1274E+01  0.9804E+01
   8.909  0.1269E+01  0.9817E+01
   8.919  0.1263E+01  0.9830E+01
   8.929  0.1258E+01  0.9842E+01
   8.939  0.1253E+01  0.9855E+01
   8.949  0.1249E+01  0.9867E+01
   8.959  0.1244E+01  0.9880E+01
   8.969  0.1241E+01  0.9892E+01
   8.979  0.1237E+01  0.9904E+01
   8.989  0.1234E+01  0.9917E+01
   8.999  0.1232E+01  0.9929E+01
   9.009  0.1230E+01  0.9941E+01
   9.019  0.1229E+01  0.9954E+01
   9.029  0.1228E+01  0.9966E+01
   9.039  0.1228E+01  0.9978E+01
   9.049  0.1228E+01  0.9991E+01
   9.059  0.1229E+01  0.1000E+02
   9.069  0.1231E+01  0.1002E+02
   9.079  0.1233E+01  0.1003E+02
   9.089  0.1236E+01  0.1004E+02
   9.099  0.1239E+01  0.1005E+02
   9.109  0.1243E+01  0.1006E+02
   9.119  0.1248E+01  0.1008E+02
   9.129  0.1254E+01  0.1009E+02
   9.139  0.1260E+01  0.1010E+02
   9.149  0.1267E+01  0.1011E+02
   9.159  0.1274E+01  0.1013E+02
   9.169  0.1282E+01  0.1014E+02
   9.179  0.1291E+01  0.1015E+02
   9.189  0.1300E+01  0.1017E+02
   9.199  0.1310E+01  0.1018E+02
   9.209  0.1321E+01  0.1019E+02
   9.219  0.1331E+01  0.1021E+02
   9.229  0.1343E+01  0.1022E+02
   9.239  0.1355E+01  0.1023E+02
   9.249  0.1367E+01  0.1025E+02
   9.259  0.1380E+01  0.1026E+02
   9.269  0.1393E+01  0.1027E+02
   9.279  0.1406E+01  0.1029E+02
   9.289  0.1420E+01  0.1030E+02
   9.299  0.1434E+01  0.1032E+02
   9.309  0.1448E+01  0.1033E+02
   9.319  0.1462E+01  0.1035E+02
   9.329  0.1477E+01  0.1036E+02
   9.339  0.1491E+01  0.1038E+02
   9.349  0.1505E+01  0.1039E+02
   9.359  0.1520E+01  0.1041E+02
   9.369  0.1534E+01  0.1042E+02
   9.379  0.1548E+01  0.1044E+02
   9.389  0.1562E+01  0.1045E+02
   9.399  0.1575E+01  0.1047E+02
   9.409  0.1589E+01  0.1048E+02
   9.419  0.1601E+01  0.1050E+02
   9.429  0.1614E+01  0.1052E+02
   9.439  0.1626E+01  0.1053E+02
   9.449  0.1638E+01  0.1055E+02
   9.459  0.1649E+01  0.1057E+02
   9.469  0.1660E+01  0.1058E+02
   9.479  0.1670E+01  0.1060E+02
   9.489  0.1679E+01  0.1062E+02
   9.499  0.1688E+01  0.1063E+02
   9.509  0.1697E+01  0.1065E+02
   9.519  0.1704E+01  0.1067E+02
   9.529  0.1711E+01  0.1068E+02
   9.539  0.1718E+01  0.1070E+02
   9.549  0.1724E+01  0.1072E+02
   9.559  0.1729E+01  0.1074E+02
   9.569  0.1733E+01  0.1075E+02
   9.579  0.1737E+01  0.1077E+02
   9.589  0.1740E+01  0.1079E+02
   9.599  0.1742E+01  0.1080E+02
   9.609  0.1744E+01  0.1082E+02
   9.619  0.1745E+01  0.1084E+02
   9.629  0.1746E+01  0.1086E+02
   9.639  0.1746E+01  0.1087E+02
   9.649  0.1745E+01  0.1089E+02
   9.659  0.1744E+01  0.1091E+02
   9.669  0.1742E+01  0.1093E+02
   9.679  0.1740E+01  0.1094E+02
   9.689  0.1737E+01  0.1096E+02
   9.699  0.1734E+01  0.1098E+02
   9.709  0.1730E+01  0.1100E+02
   9.719  0.1725E+01  0.1101E+02
   9.729  0.1721E+01  0.1103E+02
   9.739  0.1716E+01  0.1105E+02
   9.749  0.1710E+01  0.1106E+02
   9.759  0.1704E+01  0.1108E+02
   9.769  0.1698E+01  0.1110E+02
   9.779  0.1692E+01  0.1112E+02
   9.789  0.1685E+01  0.1113E+02
   9.799  0.1678E+01  0.1115E+02
   9.809  0.1671E+01  0.1117E+02
   9.819  0.1664E+01  0.1118E+02
   9.829  0.1656E+01  0.1120E+02
   9.839  0.1648E+01  0.1122E+02
   9.849  0.1640E+01  0.1123E+02
   9.859  0.1632E+01  0.1125E+02
   9.869  0.1624E+01  0.1126E+02
   9.879  0.1616E+01  0.1128E+02
   9.889  0.1607E+01  0.1130E+02
   9.899  0.1599E+01  0.1131E+02
   9.909  0.1590E+01  0.1133E+02
   9.919  0.1582E+01  0.1134E+02
   9.929  0.1573E+01  0.1136E+02
   9.939  0.1565E+01  0.1138E+02
   9.949  0.1556E+01  0.1139E+02
   9.959  0.1548E+01  0.1141E+02
   9.969  0.1539E+01  0.1142E+02
   9.979  0.1531E+01  0.1144E+02
   9.989  0.1523E+01  0.1145E+02
   9.999  0.1514E+01  0.1147E+02
  10.009  0.1506E+01  0.1148E+02
  10.019  0.1498E+01  0.1150E+02
  10.029  0.1491E+01  0.1151E+02
  10.039  0.1483E+01  0.1153E+02
  10.049  0.1476E+01  0.1154E+02
  10.059  0.1468E+01  0.1156E+02
  10.069  0.1461E+01  0.1157E+02
  10.079  0.1454E+01  0.1159E+02
  10.089  0.1447E+01  0.1160E+02
  10.099  0.1441E+01  0.1162E+02
  10.109  0.1434E+01  0.1163E+02
  10.119  0.1428E+01  0.1164E+02
  10.129  0.1422E+01  0.1166E+02
  10.139  0.1417E+01  0.1167E+02
  10.149  0.1411E+01  0.1169E+02
  10.159  0.1406E+01  0.1170E+02
  10.169  0.1401E+01  0.1171E+02
  10.179  0.1396E+01  0.1173E+02
  10.189  0.1391E+01  0.1174E+02
  10.199  0.1387E+01  0.1176E+02
  10.209  0.1382E+01  0.1177E+02
  10.219  0.1378E+01  0.1178E+02
  10.229  0.1375E+01  0.1180E+02
  10.239  0.1371E+01  0.1181E+02
  10.249  0.1367E+01  0.1183E+02
  10.259  0.1364E+01  0.1184E+02
  10.269  0.1361E+01  0.1185E+02
  10.279  0.1358E+01  0.1187E+02
  10.289  0.1355E+01  0.1188E+02
  10.299  0.1352E+01  0.1189E+02
  10.309  0.1349E+01  0.1191E+02
  10.319  0.1347E+01  0.1192E+02
  10.329  0.1344E+01  0.1193E+02
  10.339  0.1342E+01  0.1195E+02
  10.349  0.1339E+01  0.1196E+02
  10.359  0.1337E+01  0.1197E+02
  10.369  0.1334E+01  0.1199E+02
  10.379  0.1332E+01  0.1200E+02
  10.389  0.1330E+01  0.1201E+02
  10.399  0.1327E+01  0.1203E+02
  10.409  0.1325E+01  0.1204E+02
  10.419  0.1322E+01  0.1205E+02
  10.429  0.1320E+01  0.1207E+02
  10.439  0.1317E+01  0.1208E+02
  10.449  0.1315E+01  0.1209E+02
  10.459  0.1312E+01  0.1211E+02
  10.469  0.1309E+01  0.1212E+02
  10.479  0.1307E+01  0.1213E+02
  10.489  0.1304E+01  0.1215E+02
  10.499  0.1301E+01  0.1216E+02
  10.509  0.1298E+01  0.1217E+02
  10.519  0.1295E+01  0.1218E+02
  10.529  0.1292E+01  0.1220E+02
  10.539  0.1289E+01  0.1221E+02
  10.549  0.1286E+01  0.1222E+02
  10.559  0.1283E+01  0.1224E+02
  10.569  0.1280E+01  0.1225E+02
  10.579  0.1277E+01  0.1226E+02
  10.589  0.1273E+01  0.1227E+02
  10.599  0.1270E+01  0.1229E+02
  10.609  0.1267E+01  0.1230E+02
  10.619  0.1264E+01  0.1231E+02
  10.629  0.1261E+01  0.1232E+02
  10.639  0.1258E+01  0.1234E+02
  10.649  0.1255E+01  0.1235E+02
  10.659  0.1252E+01  0.1236E+02
  10.669  0.1249E+01  0.1237E+02
  10.679  0.1246E+01  0.1239E+02
  10.689  0.1243E+01  0.1240E+02
  10.699  0.1240E+01  0.1241E+02
  10.709  0.1238E+01  0.1242E+02
  10.719  0.1235E+01  0.1244E+02
  10.729  0.1233E+01  0.1245E+02
  10.739  0.1231E+01  0.1246E+02
  10.749  0.1229E+01  0.1247E+02
  10.759  0.1227E+01  0.1249E+02
  10.769  0.1225E+01  0.1250E+02
  10.779  0.1223E+01  0.1251E+02
  10.789  0.1222E+01  0.1252E+02
  10.799  0.1220E+01  0.1253E+02
  10.809  0.1219E+01  0.1255E+02
  10.819  0.1218E+01  0.1256E+02
  10.829  0.1217E+01  0.1257E+02
  10.839  0.1216E+01  0.1258E+02
  10.849  0.1216E+01  0.1260E+02
  10.859  0.1215E+01  0.1261E+02
  10.869  0.1215E+01  0.1262E+02
  10.879  0.1215E+01  0.1263E+02
  10.889  0.1215E+01  0.1264E+02
  10.899  0.1215E+01  0.1266E+02
  10.909  0.1216E+01  0.1267E+02
  10.919  0.1216E+01  0.1268E+02
  10.929  0.1217E+01  0.1269E+02
  10.939  0.1217E+01  0.1271E+02
  10.949  0.1218E+01  0.1272E+02
  10.959  0.1219E+01  0.1273E+02
  10.969  0.1220E+01  0.1274E+02
  10.979  0.1222E+01  0.1275E+02
  10.989  0.1223E+01  0.1277E+02
  10.999  0.1224E+01  0.1278E+02
  11.009  0.1225E+01  0.1279E+02
  11.019  0.1227E+01  0.1280E+02
  11.029  0.1228E+01  0.1282E+02
  11.039  0.1230E+01  0.1283E+02
  11.049  0.1231E+01  0.1284E+02
  11.059  0.1233E+01  0.1285E+02
  11.069  0.1235E+01  0.1286E+02
  11.079  0.1236E+01  0.1288E+02
  11.089  0.1237E+01  0.1289E+02
  11.099  0.1239E+01  0.1290E+02
  11.109  0.1240E+01  0.1291E+02
  11.119  0.1241E+01  0.1293E+02
  11.129  0.1243E+01  0.1294E+02
  11.139  0.1244E+01  0.1295E+02
  11.149  0.1244E+01  0.1296E+02
  11.159  0.1245E+01  0.1298E+02
  11.169  0.1246E+01  0.1299E+02
  11.179  0.1246E+01  0.1300E+02
  11.189  0.1247E+01  0.1301E+02
  11.199  0.1247E+01  0.1303E+02
  11.209  0.1247E+01  0.1304E+02
  11.219  0.1246E+01  0.1305E+02
  11.229  0.1246E+01  0.1306E+02
  11.239  0.1245E+01  0.1308E+02
  11.249  0.1244E+01  0.1309E+02
  11.259  0.1243E+01  0.1310E+02
  11.269  0.1241E+01  0.1311E+02
  11.279  0.1240E+01  0.1313E+02
  11.289  0.1238E+01  0.1314E+02
  11.299  0.1235E+01  0.1315E+02
  11.309  0.1233E+01  0.1316E+02
  11.319  0.1230E+01  0.1317E+02
  11.329  0.1228E+01  0.1319E+02
  11.339  0.1224E+01  0.1320E+02
  11.349  0.1221E+01  0.1321E+02
  11.359  0.1218E+01  0.1322E+02
  11.369  0.1214E+01  0.1324E+02
  11.379  0.1210E+01  0.1325E+02
  11.389  0.1206E+01  0.1326E+02
  11.399  0.1202E+01  0.1327E+02
  11.409  0.1198E+01  0.1328E+02
  11.419  0.1193E+01  0.1330E+02
  11.429  0.1189E+01  0.1331E+02
  11.439  0.1184E+01  0.1332E+02
  11.449  0.1179E+01  0.1333E+02
  11.459  0.1175E+01  0.1334E+02
  11.469  0.1170E+01  0.1335E+02
  11.479  0.1165E+01  0.1337E+02
  11.489  0.1161E+01  0.1338E+02
  11.499  0.1156E+01  0.1339E+02
  11.509  0.1151E+01  0.1340E+02
  11.519  0.1147E+01  0.1341E+02
  11.529  0.1142E+01  0.1342E+02
  11.539  0.1138E+01  0.1344E+02
  11.549  0.1134E+01  0.1345E+02
  11.559  0.1130E+01  0.1346E+02
  11.569  0.1126E+01  0.1347E+02
  11.579  0.1122E+01  0.1348E+02
  11.589  0.1119E+01  0.1349E+02
  11.599  0.1115E+01  0.1350E+02
  11.609  0.1112E+01  0.1351E+02
  11.619  0.1109E+01  0.1353E+02
  11.629  0.1107E+01  0.1354E+02
  11.639  0.1105E+01  0.1355E+02
  11.649  0.1102E+01  0.1356E+02
  11.659  0.1101E+01  0.1357E+02
  11.669  0.1099E+01  0.1358E+02
  11.679  0.1098E+01  0.1359E+02
  11.689  0.1097E+01  0.1360E+02
  11.699  0.1096E+01  0.1361E+02
  11.709  0.1095E+01  0.1362E+02
  11.719  0.1095E+01  0.1364E+02
  11.729  0.1095E+01  0.1365E+02
  11.739  0.1095E+01  0.1366E+02
  11.749  0.1096E+01  0.1367E+02
  11.759  0.1096E+01  0.1368E+02
  11.769  0.1097E+01  0.1369E+02
  11.779  0.1098E+01  0.1370E+02
  11.789  0.1099E+01  0.1371E+02
  11.799  0.1101E+01  0.1372E+02
  11.809  0.1102E+01  0.1373E+02
  11.819  0.1104E+01  0.1374E+02
  11.829  0.1105E+01  0.1376E+02
  11.839  0.1107E+01  0.1377E+02
  11.849  0.1109E+01  0.1378E+02
  11.859  0.1111E+01  0.1379E+02
  11.869  0.1113E+01  0.1380E+02
  11.879  0.1115E+01  0.1381E+02
  11.889  0.1118E+01  0.1382E+02
  11.899  0.1120E+01  0.1383E+02
  11.909  0.1122E+01  0.1385E+02
  11.919  0.1124E+01  0.1386E+02
  11.929  0.1126E+01  0.1387E+02
  11.939  0.1127E+01  0.1388E+02
  11.949  0.1129E+01  0.1389E+02
  11.959  0.1131E+01  0.1390E+02
  11.969  0.1132E+01  0.1391E+02
  11.979  0.1134E+01  0.1392E+02
  11.989  0.1135E+01  0.1394E+02
  11.999  0.1136E+01  0.1395E+02
  12.009  0.1137E+01  0.1396E+02
  12.019  0.1137E+01  0.1397E+02
  12.029  0.1137E+01  0.1398E+02
  12.039  0.1138E+01  0.1399E+02
  12.049  0.1137E+01  0.1400E+02
  12.059  0.1137E+01  0.1402E+02
  12.069  0.1136E+01  0.1403E+02
  12.079  0.1135E+01  0.1404E+02
  12.089  0.1134E+01  0.1405E+02
  12.099  0.1133E+01  0.1406E+02
  12.109  0.1131E+01  0.1407E+02
  12.119  0.1129E+01  0.1408E+02
  12.129  0.1127E+01  0.1409E+02
  12.139  0.1124E+01  0.1411E+02
  12.149  0.1122E+01  0.1412E+02
  12.159  0.1118E+01  0.1413E+02
  12.169  0.1115E+01  0.1414E+02
  12.179  0.1112E+01  0.1415E+02
  12.189  0.1108E+01  0.1416E+02
  12.199  0.1104E+01  0.1417E+02
  12.209  0.1100E+01  0.1418E+02
  12.219  0.1096E+01  0.1419E+02
  12.229  0.1091E+01  0.1421E+02
  12.239  0.1086E+01  0.1422E+02
  12.249  0.1082E+01  0.1423E+02
  12.259  0.1077E+01  0.1424E+02
  12.269  0.1072E+01  0.1425E+02
  12.279  0.1067E+01  0.1426E+02
  12.289  0.1062E+01  0.1427E+02
  12.299  0.1057E+01  0.1428E+02
  12.309  0.1052E+01  0.1429E+02
  12.319  0.1047E+01  0.1430E+02
  12.329  0.1042E+01  0.1431E+02
  12.339  0.1037E+01  0.1432E+02
  12.349  0.1032E+01  0.1433E+02
  12.359  0.1028E+01  0.1434E+02
  12.369  0.1023E+01  0.1435E+02
  12.379  0.1019E+01  0.1436E+02
  12.389  0.1015E+01  0.1437E+02
  12.399  0.1011E+01  0.1438E+02
  12.409  0.1008E+01  0.1439E+02
  12.419  0.1005E+01  0.1440E+02
  12.429  0.1002E+01  0.1441E+02
  12.439  0.9992E+00  0.1442E+02
  12.449  0.9970E+00  0.1443E+02
  12.459  0.9951E+00  0.1444E+02
  12.469  0.9937E+00  0.1445E+02
  12.479  0.9926E+00  0.1446E+02
  12.489  0.9920E+00  0.1447E+02
  12.499  0.9918E+00  0.1448E+02
  12.509  0.9920E+00  0.1449E+02
  12.519  0.9927E+00  0.1450E+02
  12.529  0.9938E+00  0.1451E+02
  12.539  0.9954E+00  0.1452E+02
  12.549  0.9975E+00  0.1453E+02
  12.559  0.1000E+01  0.1454E+02
  12.569  0.1003E+01  0.1455E+02
  12.579  0.1006E+01  0.1456E+02
  12.589  0.1010E+01  0.1457E+02
  12.599  0.1015E+01  0.1458E+02
  12.609  0.1020E+01  0.1459E+02
  12.619  0.1025E+01  0.1460E+02
  12.629  0.1031E+01  0.1461E+02
  12.639  0.1037E+01  0.1462E+02
  12.649  0.1043E+01  0.1463E+02
  12.659  0.1050E+01  0.1465E+02
  12.669  0.1057E+01  0.1466E+02
  12.679  0.1065E+01  0.1467E+02
  12.689  0.1073E+01  0.1468E+02
  12.699  0.1081E+01  0.1469E+02
  12.709  0.1089E+01  0.1470E+02
  12.719  0.1098E+01  0.1471E+02
  12.729  0.1107E+01  0.1472E+02
  12.739  0.1115E+01  0.1473E+02
  12.749  0.1125E+01  0.1474E+02
  12.759  0.1134E+01  0.1475E+02
  12.769  0.1143E+01  0.1477E+02
  12.779  0.1152E+01  0.1478E+02
  12.789  0.1162E+01  0.1479E+02
  12.799  0.1171E+01  0.1480E+02
  12.809  0.1180E+01  0.1481E+02
  12.819  0.1189E+01  0.1482E+02
  12.829  0.1198E+01  0.1484E+02
  12.839  0.1207E+01  0.1485E+02
  12.849  0.1215E+01  0.1486E+02
  12.859  0.1223E+01  0.1487E+02
  12.869  0.1231E+01  0.1489E+02
  12.879  0.1239E+01  0.1490E+02
  12.889  0.1246E+01  0.1491E+02
  12.899  0.1253E+01  0.1492E+02
  12.909  0.1259E+01  0.1494E+02
  12.919  0.1265E+01  0.1495E+02
  12.929  0.1271E+01  0.1496E+02
  12.939  0.1276E+01  0.1497E+02
  12.949  0.1280E+01  0.1499E+02
  12.959  0.1284E+01  0.1500E+02
  12.969  0.1287E+01  0.1501E+02
  12.979  0.1290E+01  0.1502E+02
  12.989  0.1292E+01  0.1504E+02
  12.999  0.1293E+01  0.1505E+02
  13.009  0.1294E+01  0.1506E+02
  13.019  0.1294E+01  0.1508E+02
  13.029  0.1294E+01  0.1509E+02
  13.039  0.1293E+01  0.1510E+02
  13.049  0.1291E+01  0.1512E+02
  13.059  0.1289E+01  0.1513E+02
  13.069  0.1286E+01  0.1514E+02
  13.079  0.1282E+01  0.1515E+02
  13.089  0.1278E+01  0.1517E+02
  13.099  0.1273E+01  0.1518E+02
  13.109  0.1268E+01  0.1519E+02
  13.119  0.1262E+01  0.1520E+02
  13.129  0.1256E+01  0.1522E+02
  13.139  0.1249E+01  0.1523E+02
  13.149  0.1242E+01  0.1524E+02
  13.159  0.1234E+01  0.1525E+02
  13.169  0.1226E+01  0.1527E+02
  13.179  0.1218E+01  0.1528E+02
  13.189  0.1209E+01  0.1529E+02
  13.199  0.1200E+01  0.1530E+02
  13.209  0.1191E+01  0.1532E+02
  13.219  0.1182E+01  0.1533E+02
  13.229  0.1172E+01  0.1534E+02
  13.239  0.1163E+01  0.1535E+02
  13.249  0.1153E+01  0.1536E+02
  13.259  0.1144E+01  0.1537E+02
  13.269  0.1134E+01  0.1538E+02
  13.279  0.1125E+01  0.1540E+02
  13.289  0.1115E+01  0.1541E+02
  13.299  0.1106E+01  0.1542E+02
  13.309  0.1097E+01  0.1543E+02
  13.319  0.1089E+01  0.1544E+02
  13.329  0.1081E+01  0.1545E+02
  13.339  0.1073E+01  0.1546E+02
  13.349  0.1065E+01  0.1547E+02
  13.359  0.1058E+01  0.1548E+02
  13.369  0.1051E+01  0.1549E+02
  13.379  0.1045E+01  0.1550E+02
  13.389  0.1039E+01  0.1551E+02
  13.399  0.1034E+01  0.1552E+02
  13.409  0.1030E+01  0.1553E+02
  13.419  0.1026E+01  0.1554E+02
  13.429  0.1022E+01  0.1556E+02
  13.439  0.1020E+01  0.1557E+02
  13.449  0.1018E+01  0.1558E+02
  13.459  0.1016E+01  0.1559E+02
  13.469  0.1016E+01  0.1560E+02
  13.479  0.1016E+01  0.1561E+02
  13.489  0.1017E+01  0.1562E+02
  13.499  0.1018E+01  0.1563E+02
  13.509  0.1020E+01  0.1564E+02
  13.519  0.1023E+01  0.1565E+02
  13.529  0.1027E+01  0.1566E+02
  13.539  0.1031E+01  0.1567E+02
  13.549  0.1036E+01  0.1568E+02
  13.559  0.1042E+01  0.1569E+02
  13.569  0.1048E+01  0.1570E+02
  13.579  0.1055E+01  0.1571E+02
  13.589  0.1062E+01  0.1572E+02
  13.599  0.1070E+01  0.1573E+02
  13.609  0.1079E+01  0.1574E+02
  13.619  0.1088E+01  0.1575E+02
  13.629  0.1098E+01  0.1576E+02
  13.639  0.1108E+01  0.1577E+02
  13.649  0.1119E+01  0.1579E+02
  13.659  0.1130E+01  0.1580E+02
  13.669  0.1141E+01  0.1581E+02
  13.679  0.1153E+01  0.1582E+02
  13.689  0.1165E+01  0.1583E+02
  13.699  0.1177E+01  0.1584E+02
  13.709  0.1189E+01  0.1585E+02
  13.719  0.1202E+01  0.1587E+02
  13.729  0.1214E+01  0.1588E+02
  13.739  0.1227E+01  0.1589E+02
  13.749  0.1240E+01  0.1590E+02
  13.759  0.1252E+01  0.1592E+02
  13.769  0.1265E+01  0.1593E+02
  13.779  0.1277E+01  0.1594E+02
  13.789  0.1289E+01  0.1595E+02
  13.799  0.1301E+01  0.1597E+02
  13.809  0.1312E+01  0.1598E+02
  13.819  0.1324E+01  0.1599E+02
  13.829  0.1335E+01  0.1601E+02
  13.839  0.1345E+01  0.1602E+02
  13.849  0.1355E+01  0.1603E+02
  13.859  0.1364E+01  0.1605E+02
  13.869  0.1373E+01  0.1606E+02
  13.879  0.1381E+01  0.1608E+02
  13.889  0.1389E+01  0.1609E+02
  13.899  0.1396E+01  0.1610E+02
  13.909  0.1402E+01  0.1612E+02
  13.919  0.1408E+01  0.1613E+02
  13.929  0.1413E+01  0.1615E+02
  13.939  0.1417E+01  0.1616E+02
  13.949  0.1420E+01  0.1617E+02
  13.959  0.1422E+01  0.1619E+02
  13.969  0.1424E+01  0.1620E+02
  13.979  0.1425E+01  0.1622E+02
  13.989  0.1425E+01  0.1623E+02
  13.999  0.1424E+01  0.1625E+02
  14.009  0.1422E+01  0.1626E+02
  14.019  0.1420E+01  0.1627E+02
  14.029  0.1416E+01  0.1629E+02
  14.039  0.1412E+01  0.1630E+02
  14.049  0.1407E+01  0.1632E+02
  14.059  0.1402E+01  0.1633E+02
  14.069  0.1395E+01  0.1634E+02
  14.079  0.1388E+01  0.1636E+02
  14.089  0.1380E+01  0.1637E+02
  14.099  0.1371E+01  0.1639E+02
  14.109  0.1362E+01  0.1640E+02
  14.119  0.1353E+01  0.1641E+02
  14.129  0.1342E+01  0.1643E+02
  14.139  0.1331E+01  0.1644E+02
  14.149  0.1320E+01  0.1645E+02
  14.159  0.1308E+01  0.1647E+02
  14.169  0.1296E+01  0.1648E+02
  14.179  0.1284E+01  0.1649E+02
  14.189  0.1271E+01  0.1650E+02
  14.199  0.1259E+01  0.1652E+02
  14.209  0.1246E+01  0.1653E+02
  14.219  0.1233E+01  0.1654E+02
  14.229  0.1219E+01  0.1655E+02
  14.239  0.1206E+01  0.1657E+02
  14.249  0.1193E+01  0.1658E+02
  14.259  0.1180E+01  0.1659E+02
  14.269  0.1167E+01  0.1660E+02
  14.279  0.1155E+01  0.1661E+02
  14.289  0.1143E+01  0.1662E+02
  14.299  0.1131E+01  0.1664E+02
  14.309  0.1119E+01  0.1665E+02
  14.319  0.1108E+01  0.1666E+02
  14.329  0.1097E+01  0.1667E+02
  14.339  0.1087E+01  0.1668E+02
  14.349  0.1077E+01  0.1669E+02
  14.359  0.1068E+01  0.1670E+02
  14.369  0.1059E+01  0.1671E+02
  14.379  0.1051E+01  0.1672E+02
  14.389  0.1044E+01  0.1673E+02
  14.399  0.1037E+01  0.1674E+02
  14.409  0.1031E+01  0.1675E+02
  14.419  0.1026E+01  0.1676E+02
  14.429  0.1021E+01  0.1677E+02
  14.439  0.1018E+01  0.1678E+02
  14.449  0.1015E+01  0.1679E+02
  14.459  0.1012E+01  0.1680E+02
  14.469  0.1011E+01  0.1681E+02
  14.479  0.1010E+01  0.1682E+02
  14.489  0.1010E+01  0.1683E+02
  14.499  0.1010E+01  0.1684E+02
  14.509  0.1012E+01  0.1685E+02
  14.519  0.1014E+01  0.1686E+02
  14.529  0.1016E+01  0.1687E+02
  14.539  0.1020E+01  0.1689E+02
  14.549  0.1024E+01  0.1690E+02
  14.559  0.1029E+01  0.1691E+02
  14.569  0.1034E+01  0.1692E+02
  14.579  0.1040E+01  0.1693E+02
  14.589  0.1046E+01  0.1694E+02
  14.599  0.1053E+01  0.1695E+02
  14.609  0.1061E+01  0.1696E+02
  14.619  0.1069E+01  0.1697E+02
  14.629  0.1077E+01  0.1698E+02
  14.639  0.1086E+01  0.1699E+02
  14.649  0.1095E+01  0.1700E+02
  14.659  0.1105E+01  0.1701E+02
  14.669  0.1114E+01  0.1702E+02
  14.679  0.1124E+01  0.1703E+02
  14.689  0.1135E+01  0.1705E+02
  14.699  0.1145E+01  0.1706E+02
  14.709  0.1155E+01  0.1707E+02
  14.719  0.1166E+01  0.1708E+02
  14.729  0.1176E+01  0.1709E+02
  14.739  0.1187E+01  0.1710E+02
  14.749  0.1197E+01  0.1712E+02
  14.759  0.1208E+01  0.1713E+02
  14.769  0.1218E+01  0.1714E+02
  14.779  0.1228E+01  0.1715E+02
  14.789  0.1238E+01  0.1717E+02
  14.799  0.1247E+01  0.1718E+02
  14.809  0.1256E+01  0.1719E+02
  14.819  0.1265E+01  0.1720E+02
  14.829  0.1274E+01  0.1722E+02
  14.839  0.1282E+01  0.1723E+02
  14.849  0.1289E+01  0.1724E+02
  14.859  0.1296E+01  0.1725E+02
  14.869  0.1303E+01  0.1727E+02
  14.879  0.1309E+01  0.1728E+02
  14.889  0.1314E+01  0.1729E+02
  14.899  0.1319E+01  0.1731E+02
  14.909  0.1323E+01  0.1732E+02
  14.919  0.1327E+01  0.1733E+02
  14.929  0.1330E+01  0.1735E+02
  14.939  0.1332E+01  0.1736E+02
  14.949  0.1334E+01  0.1737E+02
  14.959  0.1335E+01  0.1739E+02
  14.969  0.1335E+01  0.1740E+02
  14.979  0.1334E+01  0.1741E+02
  14.989  0.1333E+01  0.1743E+02
  14.999  0.1331E+01  0.1744E+02
  15.009  0.1329E+01  0.1745E+02
  15.019  0.1326E+01  0.1747E+02
  15.029  0.1322E+01  0.1748E+02
  15.039  0.1317E+01  0.1749E+02
  15.049  0.1312E+01  0.1751E+02
  15.059  0.1307E+01  0.1752E+02
  15.069  0.1300E+01  0.1753E+02
  15.079  0.1294E+01  0.1754E+02
  15.089  0.1287E+01  0.1756E+02
  15.099  0.1279E+01  0.1757E+02
  15.109  0.1271E+01  0.1758E+02
  15.119  0.1263E+01  0.1760E+02
  15.129  0.1254E+01  0.1761E+02
  15.139  0.1245E+01  0.1762E+02
  15.149  0.1236E+01  0.1763E+02
  15.159  0.1226E+01  0.1765E+02
  15.169  0.1217E+01  0.1766E+02
  15.179  0.1207E+01  0.1767E+02
  15.189  0.1197E+01  0.1768E+02
  15.199  0.1188E+01  0.1769E+02
  15.209  0.1178E+01  0.1771E+02
  15.219  0.1169E+01  0.1772E+02
  15.229  0.1159E+01  0.1773E+02
  15.239  0.1150E+01  0.1774E+02
  15.249  0.1141E+01  0.1775E+02
  15.259  0.1132E+01  0.1776E+02
  15.269  0.1124E+01  0.1777E+02
  15.279  0.1115E+01  0.1779E+02
  15.289  0.1108E+01  0.1780E+02
  15.299  0.1100E+01  0.1781E+02
  15.309  0.1093E+01  0.1782E+02
  15.319  0.1087E+01  0.1783E+02
  15.329  0.1081E+01  0.1784E+02
  15.339  0.1075E+01  0.1785E+02
  15.349  0.1070E+01  0.1786E+02
  15.359  0.1066E+01  0.1787E+02
  15.369  0.1062E+01  0.1788E+02
  15.379  0.1059E+01  0.1789E+02
  15.389  0.1056E+01  0.1790E+02
  15.399  0.1054E+01  0.1791E+02
  15.409  0.1052E+01  0.1792E+02
  15.419  0.1051E+01  0.1794E+02
  15.429  0.1051E+01  0.1795E+02
  15.439  0.1051E+01  0.1796E+02
  15.449  0.1052E+01  0.1797E+02
  15.459  0.1053E+01  0.1798E+02
  15.469  0.1055E+01  0.1799E+02
  15.479  0.1058E+01  0.1800E+02
  15.489  0.1061E+01  0.1801E+02
  15.499  0.1064E+01  0.1802E+02
  15.509  0.1068E+01  0.1803E+02
  15.519  0.1073E+01  0.1804E+02
  15.529  0.1077E+01  0.1805E+02
  15.539  0.1083E+01  0.1806E+02
  15.549  0.1088E+01  0.1807E+02
  15.559  0.1094E+01  0.1808E+02
  15.569  0.1100E+01  0.1810E+02
  15.579  0.1107E+01  0.1811E+02
  15.589  0.1114E+01  0.1812E+02
  15.599  0.1121E+01  0.1813E+02
  15.609  0.1128E+01  0.1814E+02
  15.619  0.1135E+01  0.1815E+02
  15.629  0.1142E+01  0.1816E+02
  15.639  0.1149E+01  0.1817E+02
  15.649  0.1157E+01  0.1819E+02
  15.659  0.1164E+01  0.1820E+02
  15.669  0.1171E+01  0.1821E+02
  15.679  0.1178E+01  0.1822E+02
  15.689  0.1185E+01  0.1823E+02
  15.699  0.1191E+01  0.1825E+02
  15.709  0.1198E+01  0.1826E+02
  15.719  0.1204E+01  0.1827E+02
  15.729  0.1210E+01  0.1828E+02
  15.739  0.1215E+01  0.1829E+02
  15.749  0.1221E+01  0.1831E+02
  15.759  0.1225E+01  0.1832E+02
  15.769  0.1230E+01  0.1833E+02
  15.779  0.1234E+01  0.1834E+02
  15.789  0.1237E+01  0.1835E+02
  15.799  0.1240E+01  0.1837E+02
  15.809  0.1243E+01  0.1838E+02
  15.819  0.1245E+01  0.1839E+02
  15.829  0.1246E+01  0.1840E+02
  15.839  0.1247E+01  0.1842E+02
  15.849  0.1248E+01  0.1843E+02
  15.859  0.1248E+01  0.1844E+02
  15.869  0.1247E+01  0.1845E+02
  15.879  0.1246E+01  0.1847E+02
  15.889  0.1244E+01  0.1848E+02
  15.899  0.1242E+01  0.1849E+02
  15.909  0.1240E+01  0.1850E+02
  15.919  0.1236E+01  0.1852E+02
  15.929  0.1233E+01  0.1853E+02
  15.939  0.1229E+01  0.1854E+02
  15.949  0.1224E+01  0.1855E+02
  15.959  0.1219E+01  0.1857E+02
  15.969  0.1214E+01  0.1858E+02
  15.979  0.1208E+01  0.1859E+02
  15.989  0.1202E+01  0.1860E+02
  15.999  0.1195E+01  0.1861E+02
  16.009  0.1189E+01  0.1863E+02
  16.019  0.1181E+01  0.1864E+02
  16.029  0.1174E+01  0.1865E+02
  16.039  0.1166E+01  0.1866E+02
  16.049  0.1159E+01  0.1867E+02
  16.059  0.1151E+01  0.1868E+02
  16.069  0.1142E+01  0.1870E+02
  16.079  0.1134E+01  0.1871E+02
  16.089  0.1126E+01  0.1872E+02
  16.099  0.1117E+01  0.1873E+02
  16.109  0.1109E+01  0.1874E+02
  16.119  0.1100E+01  0.1875E+02
  16.129  0.1091E+01  0.1876E+02
  16.139  0.1083E+01  0.1877E+02
  16.149  0.1074E+01  0.1878E+02
  16.159  0.1066E+01  0.1879E+02
  16.169  0.1057E+01  0.1880E+02
  16.179  0.1049E+01  0.1882E+02
  16.189  0.1040E+01  0.1883E+02
  16.199  0.1032E+01  0.1884E+02
  16.209  0.1024E+01  0.1885E+02
  16.219  0.1017E+01  0.1886E+02
  16.229  0.1009E+01  0.1887E+02
  16.239  0.1001E+01  0.1888E+02
  16.249  0.9942E+00  0.1889E+02
  16.259  0.9872E+00  0.1890E+02
  16.269  0.9804E+00  0.1891E+02
  16.279  0.9739E+00  0.1892E+02
  16.289  0.9677E+00  0.1893E+02
  16.299  0.9617E+00  0.1894E+02
  16.309  0.9559E+00  0.1894E+02
  16.319  0.9505E+00  0.1895E+02
  16.329  0.9454E+00  0.1896E+02
  16.339  0.9405E+00  0.1897E+02
  16.349  0.9360E+00  0.1898E+02
  16.359  0.9317E+00  0.1899E+02
  16.369  0.9278E+00  0.1900E+02
  16.379  0.9242E+00  0.1901E+02
  16.389  0.9209E+00  0.1902E+02
  16.399  0.9179E+00  0.1903E+02
  16.409  0.9152E+00  0.1904E+02
  16.419  0.9128E+00  0.1905E+02
  16.429  0.9107E+00  0.1906E+02
  16.439  0.9089E+00  0.1907E+02
  16.449  0.9074E+00  0.1907E+02
  16.459  0.9061E+00  0.1908E+02
  16.469  0.9052E+00  0.1909E+02
  16.479  0.9045E+00  0.1910E+02
  16.489  0.9041E+00  0.1911E+02
  16.499  0.9039E+00  0.1912E+02
  16.509  0.9039E+00  0.1913E+02
  16.519  0.9042E+00  0.1914E+02
  16.529  0.9047E+00  0.1915E+02
  16.539  0.9054E+00  0.1916E+02
  16.549  0.9062E+00  0.1916E+02
  16.559  0.9073E+00  0.1917E+02
  16.569  0.9084E+00  0.1918E+02
  16.579  0.9097E+00  0.1919E+02
  16.589  0.9111E+00  0.1920E+02
  16.599  0.9126E+00  0.1921E+02
  16.609  0.9142E+00  0.1922E+02
  16.619  0.9158E+00  0.1923E+02
  16.629  0.9175E+00  0.1924E+02
  16.639  0.9192E+00  0.1925E+02
  16.649  0.9209E+00  0.1926E+02
  16.659  0.9226E+00  0.1927E+02
  16.669  0.9243E+00  0.1927E+02
  16.679  0.9259E+00  0.1928E+02
  16.689  0.9275E+00  0.1929E+02
  16.699  0.9289E+00  0.1930E+02
  16.709  0.9303E+00  0.1931E+02
  16.719  0.9315E+00  0.1932E+02
  16.729  0.9327E+00  0.1933E+02
  16.739  0.9336E+00  0.1934E+02
  16.749  0.9344E+00  0.1935E+02
  16.759  0.9350E+00  0.1936E+02
  16.769  0.9355E+00  0.1937E+02
  16.779  0.9357E+00  0.1938E+02
  16.789  0.9357E+00  0.1939E+02
  16.799  0.9355E+00  0.1940E+02
  16.809  0.9350E+00  0.1941E+02
  16.819  0.9343E+00  0.1941E+02
  16.829  0.9333E+00  0.1942E+02
  16.839  0.9321E+00  0.1943E+02
  16.849  0.9306E+00  0.1944E+02
  16.859  0.9288E+00  0.1945E+02
  16.869  0.9267E+00  0.1946E+02
  16.879  0.9243E+00  0.1947E+02
  16.889  0.9216E+00  0.1948E+02
  16.899  0.9186E+00  0.1949E+02
  16.909  0.9153E+00  0.1950E+02
  16.919  0.9117E+00  0.1951E+02
  16.929  0.9077E+00  0.1952E+02
  16.939  0.9035E+00  0.1953E+02
  16.949  0.8989E+00  0.1953E+02
  16.959  0.8940E+00  0.1954E+02
  16.969  0.8888E+00  0.1955E+02
  16.979  0.8833E+00  0.1956E+02
  16.989  0.8774E+00  0.1957E+02
  16.999  0.8713E+00  0.1958E+02
  17.009  0.8648E+00  0.1959E+02
  17.019  0.8581E+00  0.1960E+02
  17.029  0.8510E+00  0.1960E+02
  17.039  0.8437E+00  0.1961E+02
  17.049  0.8360E+00  0.1962E+02
  17.059  0.8281E+00  0.1963E+02
  17.069  0.8199E+00  0.1964E+02
  17.079  0.8115E+00  0.1965E+02
  17.089  0.8028E+00  0.1965E+02
  17.099  0.7939E+00  0.1966E+02
  17.109  0.7847E+00  0.1967E+02
  17.119  0.7753E+00  0.1968E+02
  17.129  0.7657E+00  0.1968E+02
  17.139  0.7559E+00  0.1969E+02
  17.149  0.7459E+00  0.1970E+02
  17.159  0.7358E+00  0.1971E+02
  17.169  0.7254E+00  0.1971E+02
  17.179  0.7150E+00  0.1972E+02
  17.189  0.7044E+00  0.1973E+02
  17.199  0.6936E+00  0.1974E+02
  17.209  0.6828E+00  0.1974E+02
  17.219  0.6719E+00  0.1975E+02
  17.229  0.6609E+00  0.1976E+02
  17.239  0.6498E+00  0.1976E+02
  17.249  0.6387E+00  0.1977E+02
  17.259  0.6275E+00  0.1977E+02
  17.269  0.6163E+00  0.1978E+02
  17.279  0.6051E+00  0.1979E+02
  17.289  0.5939E+00  0.1979E+02
  17.299  0.5827E+00  0.1980E+02
  17.309  0.5715E+00  0.1980E+02
  17.319  0.5604E+00  0.1981E+02
  17.329  0.5493E+00  0.1982E+02
  17.339  0.5382E+00  0.1982E+02
  17.349  0.5273E+00  0.1983E+02
  17.359  0.5164E+00  0.1983E+02
  17.369  0.5056E+00  0.1984E+02
  17.379  0.4948E+00  0.1984E+02
  17.389  0.4842E+00  0.1985E+02
  17.399  0.4737E+00  0.1985E+02
  17.409  0.4633E+00  0.1986E+02
  17.419  0.4531E+00  0.1986E+02
  17.429  0.4429E+00  0.1986E+02
  17.439  0.4329E+00  0.1987E+02
  17.449  0.4230E+00  0.1987E+02
  17.459  0.4132E+00  0.1988E+02
  17.469  0.4036E+00  0.1988E+02
  17.479  0.3941E+00  0.1989E+02
  17.489  0.3848E+00  0.1989E+02
  17.499  0.3756E+00  0.1989E+02
  17.509  0.3666E+00  0.1990E+02
  17.519  0.3576E+00  0.1990E+02
  17.529  0.3489E+00  0.1990E+02
  17.539  0.3402E+00  0.1991E+02
  17.549  0.3318E+00  0.1991E+02
  17.559  0.3234E+00  0.1991E+02
  17.569  0.3152E+00  0.1992E+02
  17.579  0.3071E+00  0.1992E+02
  17.589  0.2991E+00  0.1992E+02
  17.599  0.2913E+00  0.1993E+02
  17.609  0.2836E+00  0.1993E+02
  17.619  0.2760E+00  0.1993E+02
  17.629  0.2686E+00  0.1993E+02
  17.639  0.2613E+00  0.1994E+02
  17.649  0.2540E+00  0.1994E+02
  17.659  0.2469E+00  0.1994E+02
  17.669  0.2399E+00  0.1994E+02
  17.679  0.2330E+00  0.1995E+02
  17.689  0.2263E+00  0.1995E+02
  17.699  0.2196E+00  0.1995E+02
  17.709  0.2130E+00  0.1995E+02
  17.719  0.2065E+00  0.1995E+02
  17.729  0.2002E+00  0.1996E+02
  17.739  0.1939E+00  0.1996E+02
  17.749  0.1877E+00  0.1996E+02
  17.759  0.1816E+00  0.1996E+02
  17.769  0.1757E+00  0.1996E+02
  17.779  0.1698E+00  0.1997E+02
  17.789  0.1640E+00  0.1997E+02
  17.799  0.1583E+00  0.1997E+02
  17.809  0.1527E+00  0.1997E+02
  17.819  0.1472E+00  0.1997E+02
  17.829  0.1418E+00  0.1997E+02
  17.839  0.1365E+00  0.1998E+02
  17.849  0.1313E+00  0.1998E+02
  17.859  0.1262E+00  0.1998E+02
  17.869  0.1213E+00  0.1998E+02
  17.879  0.1164E+00  0.1998E+02
  17.889  0.1116E+00  0.1998E+02
  17.899  0.1069E+00  0.1998E+02
  17.909  0.1024E+00  0.1998E+02
  17.919  0.9790E-01  0.1998E+02
  17.929  0.9355E-01  0.1999E+02
  17.939  0.8931E-01  0.1999E+02
  17.949  0.8519E-01  0.1999E+02
  17.959  0.8118E-01  0.1999E+02
  17.969  0.7728E-01  0.1999E+02
  17.979  0.7350E-01  0.1999E+02
  17.989  0.6983E-01  0.1999E+02
  17.999  0.6628E-01  0.1999E+02
  18.009  0.6284E-01  0.1999E+02
  18.019  0.5952E-01  0.1999E+02
  18.029  0.5631E-01  0.1999E+02
  18.039  0.5322E-01  0.1999E+02
  18.049  0.5025E-01  0.1999E+02
  18.059  0.4738E-01  0.1999E+02
  18.069  0.4463E-01  0.1999E+02
  18.079  0.4200E-01  0.1999E+02
  18.089  0.3947E-01  0.2000E+02
  18.099  0.3705E-01  0.2000E+02
  18.109  0.3474E-01  0.2000E+02
  18.119  0.3253E-01  0.2000E+02
  18.129  0.3043E-01  0.2000E+02
  18.139  0.2843E-01  0.2000E+02
  18.149  0.2653E-01  0.2000E+02
  18.159  0.2472E-01  0.2000E+02
  18.169  0.2301E-01  0.2000E+02
  18.179  0.2139E-01  0.2000E+02
  18.189  0.1986E-01  0.2000E+02
  18.199  0.1842E-01  0.2000E+02
  18.209  0.1706E-01  0.2000E+02
  18.219  0.1578E-01  0.2000E+02
  18.229  0.1457E-01  0.2000E+02
  18.239  0.1344E-01  0.2000E+02
  18.249  0.1238E-01  0.2000E+02
  18.259  0.1139E-01  0.2000E+02
  18.269  0.1047E-01  0.2000E+02
  18.279  0.9604E-02  0.2000E+02
  18.289  0.8801E-02  0.2000E+02
  18.299  0.8053E-02  0.2000E+02
  18.309  0.7359E-02  0.2000E+02
  18.319  0.6715E-02  0.2000E+02
  18.329  0.6119E-02  0.2000E+02
  18.339  0.5568E-02  0.2000E+02
  18.349  0.5060E-02  0.2000E+02
  18.359  0.4591E-02  0.2000E+02
  18.369  0.4160E-02  0.2000E+02
  18.379  0.3764E-02  0.2000E+02
  18.389  0.3401E-02  0.2000E+02
  18.399  0.3069E-02  0.2000E+02
  18.409  0.2765E-02  0.2000E+02
  18.419  0.2487E-02  0.2000E+02
  18.429  0.2234E-02  0.2000E+02
  18.439  0.2004E-02  0.2000E+02
  18.449  0.1795E-02  0.2000E+02
  18.459  0.1606E-02  0.2000E+02
  18.469  0.1434E-02  0.2000E+02
  18.479  0.1279E-02  0.2000E+02
  18.489  0.1138E-02  0.2000E+02
  18.499  0.1012E-02  0.2000E+02
  18.509  0.8984E-03  0.2000E+02
  18.519  0.7963E-03  0.2000E+02
  18.529  0.7047E-03  0.2000E+02
  18.539  0.6228E-03  0.2000E+02
  18.549  0.5495E-03  0.2000E+02
  18.559  0.4841E-03  0.2000E+02
  18.569  0.4258E-03  0.2000E+02
  18.579  0.3740E-03  0.2000E+02
  18.589  0.3279E-03  0.2000E+02
  18.599  0.2871E-03  0.2000E+02
  18.609  0.2510E-03  0.2000E+02
  18.619  0.2191E-03  0.2000E+02
  18.629  0.1909E-03  0.2000E+02
  18.639  0.1661E-03  0.2000E+02
  18.649  0.1443E-03  0.2000E+02
  18.659  0.1252E-03  0.2000E+02
  18.669  0.1084E-03  0.2000E+02
  18.679  0.9374E-04  0.2000E+02
  18.689  0.8092E-04  0.2000E+02
  18.699  0.6974E-04  0.2000E+02
  18.709  0.6002E-04  0.2000E+02
  18.719  0.5157E-04  0.2000E+02
  18.729  0.4423E-04  0.2000E+02
  18.739  0.3788E-04  0.2000E+02
  18.749  0.3239E-04  0.2000E+02
  18.759  0.2765E-04  0.2000E+02
  18.769  0.2357E-04  0.2000E+02
  18.779  0.2005E-04  0.2000E+02
  18.789  0.1704E-04  0.2000E+02
  18.799  0.1445E-04  0.2000E+02
  18.809  0.1224E-04  0.2000E+02
  18.819  0.1034E-04  0.2000E+02
  18.829  0.8732E-05  0.2000E+02
  18.839  0.7358E-05  0.2000E+02
  18.849  0.6190E-05  0.2000E+02
  18.859  0.5199E-05  0.2000E+02
  18.869  0.4360E-05  0.2000E+02
  18.879  0.3650E-05  0.2000E+02
  18.889  0.3051E-05  0.2000E+02
