#  E (eV)   dos(E)     Int dos(E) EFermi =    5.167 eV
  -8.671  0.1084E-05  0.1084E-07
  -8.661  0.1309E-05  0.2393E-07
  -8.651  0.1579E-05  0.3972E-07
  -8.641  0.1901E-05  0.5873E-07
  -8.631  0.2284E-05  0.8157E-07
  -8.621  0.2741E-05  0.1090E-06
  -8.611  0.3284E-05  0.1418E-06
  -8.601  0.3928E-05  0.1811E-06
  -8.591  0.4691E-05  0.2280E-06
  -8.581  0.5593E-05  0.2840E-06
  -8.571  0.6658E-05  0.3505E-06
  -8.561  0.7913E-05  0.4297E-06
  -8.551  0.9389E-05  0.5236E-06
  -8.541  0.1112E-04  0.6348E-06
  -8.531  0.1316E-04  0.7663E-06
  -8.521  0.1554E-04  0.9217E-06
  -8.511  0.1832E-04  0.1105E-05
  -8.501  0.2156E-04  0.1320E-05
  -8.491  0.2534E-04  0.1574E-05
  -8.481  0.2973E-04  0.1871E-05
  -8.471  0.3483E-04  0.2219E-05
  -8.461  0.4074E-04  0.2627E-05
  -8.451  0.4758E-04  0.3103E-05
  -8.441  0.5547E-04  0.3657E-05
  -8.431  0.6458E-04  0.4303E-05
  -8.421  0.7506E-04  0.5054E-05
  -8.411  0.8710E-04  0.5925E-05
  -8.401  0.1009E-03  0.6934E-05
  -8.391  0.1168E-03  0.8101E-05
  -8.381  0.1349E-03  0.9450E-05
  -8.371  0.1555E-03  0.1101E-04
  -8.361  0.1791E-03  0.1280E-04
  -8.351  0.2059E-03  0.1485E-04
  -8.341  0.2363E-03  0.1722E-04
  -8.331  0.2708E-03  0.1993E-04
  -8.321  0.3099E-03  0.2302E-04
  -8.311  0.3541E-03  0.2657E-04
  -8.301  0.4039E-03  0.3061E-04
  -8.291  0.4601E-03  0.3521E-04
  -8.281  0.5233E-03  0.4044E-04
  -8.271  0.5942E-03  0.4638E-04
  -8.261  0.6738E-03  0.5312E-04
  -8.251  0.7628E-03  0.6075E-04
  -8.241  0.8622E-03  0.6937E-04
  -8.231  0.9732E-03  0.7910E-04
  -8.221  0.1097E-02  0.9007E-04
  -8.211  0.1234E-02  0.1024E-03
  -8.201  0.1387E-02  0.1163E-03
  -8.191  0.1556E-02  0.1318E-03
  -8.181  0.1743E-02  0.1493E-03
  -8.171  0.1950E-02  0.1688E-03
  -8.161  0.2178E-02  0.1905E-03
  -8.151  0.2429E-02  0.2148E-03
  -8.141  0.2705E-02  0.2419E-03
  -8.131  0.3007E-02  0.2719E-03
  -8.121  0.3339E-02  0.3053E-03
  -8.111  0.3703E-02  0.3424E-03
  -8.101  0.4099E-02  0.3834E-03
  -8.091  0.4532E-02  0.4287E-03
  -8.081  0.5003E-02  0.4787E-03
  -8.071  0.5515E-02  0.5339E-03
  -8.061  0.6071E-02  0.5946E-03
  -8.051  0.6674E-02  0.6613E-03
  -8.041  0.7326E-02  0.7346E-03
  -8.031  0.8030E-02  0.8149E-03
  -8.021  0.8789E-02  0.9027E-03
  -8.011  0.9607E-02  0.9988E-03
  -8.001  0.1049E-01  0.1104E-02
  -7.991  0.1143E-01  0.1218E-02
  -7.981  0.1244E-01  0.1342E-02
  -7.971  0.1353E-01  0.1478E-02
  -7.961  0.1468E-01  0.1625E-02
  -7.951  0.1592E-01  0.1784E-02
  -7.941  0.1723E-01  0.1956E-02
  -7.931  0.1863E-01  0.2142E-02
  -7.921  0.2012E-01  0.2344E-02
  -7.911  0.2169E-01  0.2561E-02
  -7.901  0.2336E-01  0.2794E-02
  -7.891  0.2513E-01  0.3045E-02
  -7.881  0.2699E-01  0.3315E-02
  -7.871  0.2895E-01  0.3605E-02
  -7.861  0.3102E-01  0.3915E-02
  -7.851  0.3319E-01  0.4247E-02
  -7.841  0.3547E-01  0.4602E-02
  -7.831  0.3786E-01  0.4980E-02
  -7.821  0.4036E-01  0.5384E-02
  -7.811  0.4297E-01  0.5814E-02
  -7.801  0.4570E-01  0.6271E-02
  -7.791  0.4854E-01  0.6756E-02
  -7.781  0.5149E-01  0.7271E-02
  -7.771  0.5456E-01  0.7816E-02
  -7.761  0.5775E-01  0.8394E-02
  -7.751  0.6105E-01  0.9004E-02
  -7.741  0.6446E-01  0.9649E-02
  -7.731  0.6799E-01  0.1033E-01
  -7.721  0.7163E-01  0.1105E-01
  -7.711  0.7539E-01  0.1180E-01
  -7.701  0.7925E-01  0.1259E-01
  -7.691  0.8323E-01  0.1342E-01
  -7.681  0.8730E-01  0.1430E-01
  -7.671  0.9148E-01  0.1521E-01
  -7.661  0.9577E-01  0.1617E-01
  -7.651  0.1001E+00  0.1717E-01
  -7.641  0.1046E+00  0.1822E-01
  -7.631  0.1092E+00  0.1931E-01
  -7.621  0.1138E+00  0.2045E-01
  -7.611  0.1186E+00  0.2163E-01
  -7.601  0.1234E+00  0.2287E-01
  -7.591  0.1283E+00  0.2415E-01
  -7.581  0.1332E+00  0.2548E-01
  -7.571  0.1383E+00  0.2687E-01
  -7.561  0.1434E+00  0.2830E-01
  -7.551  0.1485E+00  0.2978E-01
  -7.541  0.1537E+00  0.3132E-01
  -7.531  0.1590E+00  0.3291E-01
  -7.521  0.1643E+00  0.3455E-01
  -7.511  0.1696E+00  0.3625E-01
  -7.501  0.1750E+00  0.3800E-01
  -7.491  0.1804E+00  0.3980E-01
  -7.481  0.1858E+00  0.4166E-01
  -7.471  0.1913E+00  0.4357E-01
  -7.461  0.1967E+00  0.4554E-01
  -7.451  0.2022E+00  0.4756E-01
  -7.441  0.2077E+00  0.4964E-01
  -7.431  0.2132E+00  0.5177E-01
  -7.421  0.2187E+00  0.5396E-01
  -7.411  0.2242E+00  0.5620E-01
  -7.401  0.2297E+00  0.5850E-01
  -7.391  0.2352E+00  0.6085E-01
  -7.381  0.2406E+00  0.6326E-01
  -7.371  0.2461E+00  0.6572E-01
  -7.361  0.2516E+00  0.6823E-01
  -7.351  0.2570E+00  0.7080E-01
  -7.341  0.2624E+00  0.7343E-01
  -7.331  0.2678E+00  0.7610E-01
  -7.321  0.2732E+00  0.7884E-01
  -7.311  0.2785E+00  0.8162E-01
  -7.301  0.2838E+00  0.8446E-01
  -7.291  0.2891E+00  0.8735E-01
  -7.281  0.2944E+00  0.9029E-01
  -7.271  0.2996E+00  0.9329E-01
  -7.261  0.3049E+00  0.9634E-01
  -7.251  0.3100E+00  0.9944E-01
  -7.241  0.3152E+00  0.1026E+00
  -7.231  0.3203E+00  0.1058E+00
  -7.221  0.3254E+00  0.1090E+00
  -7.211  0.3305E+00  0.1124E+00
  -7.201  0.3355E+00  0.1157E+00
  -7.191  0.3406E+00  0.1191E+00
  -7.181  0.3456E+00  0.1226E+00
  -7.171  0.3505E+00  0.1261E+00
  -7.161  0.3555E+00  0.1296E+00
  -7.151  0.3604E+00  0.1332E+00
  -7.141  0.3653E+00  0.1369E+00
  -7.131  0.3702E+00  0.1406E+00
  -7.121  0.3751E+00  0.1443E+00
  -7.111  0.3799E+00  0.1481E+00
  -7.101  0.3848E+00  0.1520E+00
  -7.091  0.3896E+00  0.1559E+00
  -7.081  0.3944E+00  0.1598E+00
  -7.071  0.3992E+00  0.1638E+00
  -7.061  0.4040E+00  0.1679E+00
  -7.051  0.4088E+00  0.1719E+00
  -7.041  0.4135E+00  0.1761E+00
  -7.031  0.4183E+00  0.1803E+00
  -7.021  0.4231E+00  0.1845E+00
  -7.011  0.4278E+00  0.1888E+00
  -7.001  0.4326E+00  0.1931E+00
  -6.991  0.4374E+00  0.1975E+00
  -6.981  0.4421E+00  0.2019E+00
  -6.971  0.4469E+00  0.2064E+00
  -6.961  0.4517E+00  0.2109E+00
  -6.951  0.4565E+00  0.2154E+00
  -6.941  0.4613E+00  0.2201E+00
  -6.931  0.4661E+00  0.2247E+00
  -6.921  0.4709E+00  0.2294E+00
  -6.911  0.4758E+00  0.2342E+00
  -6.901  0.4806E+00  0.2390E+00
  -6.891  0.4855E+00  0.2438E+00
  -6.881  0.4904E+00  0.2488E+00
  -6.871  0.4953E+00  0.2537E+00
  -6.861  0.5003E+00  0.2587E+00
  -6.851  0.5053E+00  0.2638E+00
  -6.841  0.5103E+00  0.2689E+00
  -6.831  0.5153E+00  0.2740E+00
  -6.821  0.5204E+00  0.2792E+00
  -6.811  0.5255E+00  0.2845E+00
  -6.801  0.5307E+00  0.2898E+00
  -6.791  0.5359E+00  0.2951E+00
  -6.781  0.5411E+00  0.3006E+00
  -6.771  0.5464E+00  0.3060E+00
  -6.761  0.5518E+00  0.3115E+00
  -6.751  0.5572E+00  0.3171E+00
  -6.741  0.5626E+00  0.3227E+00
  -6.731  0.5681E+00  0.3284E+00
  -6.721  0.5737E+00  0.3342E+00
  -6.711  0.5793E+00  0.3399E+00
  -6.701  0.5850E+00  0.3458E+00
  -6.691  0.5907E+00  0.3517E+00
  -6.681  0.5966E+00  0.3577E+00
  -6.671  0.6025E+00  0.3637E+00
  -6.661  0.6085E+00  0.3698E+00
  -6.651  0.6145E+00  0.3759E+00
  -6.641  0.6207E+00  0.3821E+00
  -6.631  0.6269E+00  0.3884E+00
  -6.621  0.6333E+00  0.3947E+00
  -6.611  0.6397E+00  0.4011E+00
  -6.601  0.6462E+00  0.4076E+00
  -6.591  0.6529E+00  0.4141E+00
  -6.581  0.6596E+00  0.4207E+00
  -6.571  0.6664E+00  0.4274E+00
  -6.561  0.6734E+00  0.4341E+00
  -6.551  0.6805E+00  0.4409E+00
  -6.541  0.6877E+00  0.4478E+00
  -6.531  0.6950E+00  0.4547E+00
  -6.521  0.7024E+00  0.4618E+00
  -6.511  0.7100E+00  0.4689E+00
  -6.501  0.7177E+00  0.4760E+00
  -6.491  0.7255E+00  0.4833E+00
  -6.481  0.7335E+00  0.4906E+00
  -6.471  0.7416E+00  0.4981E+00
  -6.461  0.7499E+00  0.5056E+00
  -6.451  0.7583E+00  0.5131E+00
  -6.441  0.7668E+00  0.5208E+00
  -6.431  0.7755E+00  0.5286E+00
  -6.421  0.7843E+00  0.5364E+00
  -6.411  0.7933E+00  0.5443E+00
  -6.401  0.8024E+00  0.5524E+00
  -6.391  0.8117E+00  0.5605E+00
  -6.381  0.8211E+00  0.5687E+00
  -6.371  0.8307E+00  0.5770E+00
  -6.361  0.8404E+00  0.5854E+00
  -6.351  0.8502E+00  0.5939E+00
  -6.341  0.8602E+00  0.6025E+00
  -6.331  0.8703E+00  0.6112E+00
  -6.321  0.8805E+00  0.6200E+00
  -6.311  0.8909E+00  0.6289E+00
  -6.301  0.9013E+00  0.6379E+00
  -6.291  0.9119E+00  0.6471E+00
  -6.281  0.9226E+00  0.6563E+00
  -6.271  0.9334E+00  0.6656E+00
  -6.261  0.9442E+00  0.6751E+00
  -6.251  0.9552E+00  0.6846E+00
  -6.241  0.9662E+00  0.6943E+00
  -6.231  0.9773E+00  0.7040E+00
  -6.221  0.9885E+00  0.7139E+00
  -6.211  0.9996E+00  0.7239E+00
  -6.201  0.1011E+01  0.7340E+00
  -6.191  0.1022E+01  0.7443E+00
  -6.181  0.1033E+01  0.7546E+00
  -6.171  0.1045E+01  0.7650E+00
  -6.161  0.1056E+01  0.7756E+00
  -6.151  0.1067E+01  0.7863E+00
  -6.141  0.1078E+01  0.7970E+00
  -6.131  0.1089E+01  0.8079E+00
  -6.121  0.1100E+01  0.8189E+00
  -6.111  0.1111E+01  0.8301E+00
  -6.101  0.1122E+01  0.8413E+00
  -6.091  0.1133E+01  0.8526E+00
  -6.081  0.1144E+01  0.8640E+00
  -6.071  0.1154E+01  0.8756E+00
  -6.061  0.1165E+01  0.8872E+00
  -6.051  0.1175E+01  0.8990E+00
  -6.041  0.1185E+01  0.9108E+00
  -6.031  0.1195E+01  0.9228E+00
  -6.021  0.1204E+01  0.9348E+00
  -6.011  0.1214E+01  0.9470E+00
  -6.001  0.1223E+01  0.9592E+00
  -5.991  0.1232E+01  0.9715E+00
  -5.981  0.1241E+01  0.9839E+00
  -5.971  0.1250E+01  0.9964E+00
  -5.961  0.1258E+01  0.1009E+01
  -5.951  0.1266E+01  0.1022E+01
  -5.941  0.1274E+01  0.1034E+01
  -5.931  0.1282E+01  0.1047E+01
  -5.921  0.1289E+01  0.1060E+01
  -5.911  0.1296E+01  0.1073E+01
  -5.901  0.1303E+01  0.1086E+01
  -5.891  0.1309E+01  0.1099E+01
  -5.881  0.1315E+01  0.1112E+01
  -5.871  0.1321E+01  0.1126E+01
  -5.861  0.1326E+01  0.1139E+01
  -5.851  0.1332E+01  0.1152E+01
  -5.841  0.1336E+01  0.1165E+01
  -5.831  0.1341E+01  0.1179E+01
  -5.821  0.1345E+01  0.1192E+01
  -5.811  0.1349E+01  0.1206E+01
  -5.801  0.1352E+01  0.1219E+01
  -5.791  0.1355E+01  0.1233E+01
  -5.781  0.1358E+01  0.1247E+01
  -5.771  0.1360E+01  0.1260E+01
  -5.761  0.1362E+01  0.1274E+01
  -5.751  0.1364E+01  0.1287E+01
  -5.741  0.1365E+01  0.1301E+01
  -5.731  0.1366E+01  0.1315E+01
  -5.721  0.1366E+01  0.1328E+01
  -5.711  0.1366E+01  0.1342E+01
  -5.701  0.1365E+01  0.1356E+01
  -5.691  0.1364E+01  0.1369E+01
  -5.681  0.1362E+01  0.1383E+01
  -5.671  0.1360E+01  0.1397E+01
  -5.661  0.1357E+01  0.1410E+01
  -5.651  0.1354E+01  0.1424E+01
  -5.641  0.1351E+01  0.1437E+01
  -5.631  0.1346E+01  0.1451E+01
  -5.621  0.1341E+01  0.1464E+01
  -5.611  0.1336E+01  0.1477E+01
  -5.601  0.1330E+01  0.1491E+01
  -5.591  0.1323E+01  0.1504E+01
  -5.581  0.1316E+01  0.1517E+01
  -5.571  0.1308E+01  0.1530E+01
  -5.561  0.1299E+01  0.1543E+01
  -5.551  0.1290E+01  0.1556E+01
  -5.541  0.1280E+01  0.1569E+01
  -5.531  0.1270E+01  0.1582E+01
  -5.521  0.1258E+01  0.1594E+01
  -5.511  0.1246E+01  0.1607E+01
  -5.501  0.1234E+01  0.1619E+01
  -5.491  0.1220E+01  0.1631E+01
  -5.481  0.1206E+01  0.1643E+01
  -5.471  0.1191E+01  0.1655E+01
  -5.461  0.1176E+01  0.1667E+01
  -5.451  0.1160E+01  0.1678E+01
  -5.441  0.1143E+01  0.1690E+01
  -5.431  0.1125E+01  0.1701E+01
  -5.421  0.1107E+01  0.1712E+01
  -5.411  0.1088E+01  0.1723E+01
  -5.401  0.1069E+01  0.1734E+01
  -5.391  0.1049E+01  0.1744E+01
  -5.381  0.1028E+01  0.1755E+01
  -5.371  0.1007E+01  0.1765E+01
  -5.361  0.9854E+00  0.1774E+01
  -5.351  0.9633E+00  0.1784E+01
  -5.341  0.9408E+00  0.1793E+01
  -5.331  0.9178E+00  0.1803E+01
  -5.321  0.8946E+00  0.1812E+01
  -5.311  0.8710E+00  0.1820E+01
  -5.301  0.8471E+00  0.1829E+01
  -5.291  0.8229E+00  0.1837E+01
  -5.281  0.7986E+00  0.1845E+01
  -5.271  0.7742E+00  0.1853E+01
  -5.261  0.7496E+00  0.1860E+01
  -5.251  0.7250E+00  0.1868E+01
  -5.241  0.7004E+00  0.1875E+01
  -5.231  0.6758E+00  0.1881E+01
  -5.221  0.6514E+00  0.1888E+01
  -5.211  0.6270E+00  0.1894E+01
  -5.201  0.6028E+00  0.1900E+01
  -5.191  0.5788E+00  0.1906E+01
  -5.181  0.5551E+00  0.1911E+01
  -5.171  0.5317E+00  0.1917E+01
  -5.161  0.5087E+00  0.1922E+01
  -5.151  0.4860E+00  0.1927E+01
  -5.141  0.4637E+00  0.1931E+01
  -5.131  0.4419E+00  0.1936E+01
  -5.121  0.4205E+00  0.1940E+01
  -5.111  0.3996E+00  0.1944E+01
  -5.101  0.3793E+00  0.1948E+01
  -5.091  0.3595E+00  0.1951E+01
  -5.081  0.3403E+00  0.1955E+01
  -5.071  0.3217E+00  0.1958E+01
  -5.061  0.3036E+00  0.1961E+01
  -5.051  0.2862E+00  0.1964E+01
  -5.041  0.2694E+00  0.1967E+01
  -5.031  0.2533E+00  0.1969E+01
  -5.021  0.2377E+00  0.1971E+01
  -5.011  0.2228E+00  0.1974E+01
  -5.001  0.2086E+00  0.1976E+01
  -4.991  0.1949E+00  0.1978E+01
  -4.981  0.1819E+00  0.1980E+01
  -4.971  0.1695E+00  0.1981E+01
  -4.961  0.1578E+00  0.1983E+01
  -4.951  0.1466E+00  0.1984E+01
  -4.941  0.1360E+00  0.1986E+01
  -4.931  0.1260E+00  0.1987E+01
  -4.921  0.1166E+00  0.1988E+01
  -4.911  0.1077E+00  0.1989E+01
  -4.901  0.9933E-01  0.1990E+01
  -4.891  0.9148E-01  0.1991E+01
  -4.881  0.8412E-01  0.1992E+01
  -4.871  0.7723E-01  0.1993E+01
  -4.861  0.7081E-01  0.1993E+01
  -4.851  0.6482E-01  0.1994E+01
  -4.841  0.5924E-01  0.1995E+01
  -4.831  0.5406E-01  0.1995E+01
  -4.821  0.4926E-01  0.1996E+01
  -4.811  0.4482E-01  0.1996E+01
  -4.801  0.4071E-01  0.1996E+01
  -4.791  0.3692E-01  0.1997E+01
  -4.781  0.3344E-01  0.1997E+01
  -4.771  0.3023E-01  0.1998E+01
  -4.761  0.2729E-01  0.1998E+01
  -4.751  0.2460E-01  0.1998E+01
  -4.741  0.2214E-01  0.1998E+01
  -4.731  0.1989E-01  0.1998E+01
  -4.721  0.1784E-01  0.1999E+01
  -4.711  0.1598E-01  0.1999E+01
  -4.701  0.1429E-01  0.1999E+01
  -4.691  0.1276E-01  0.1999E+01
  -4.681  0.1138E-01  0.1999E+01
  -4.671  0.1012E-01  0.1999E+01
  -4.661  0.8997E-02  0.1999E+01
  -4.651  0.7982E-02  0.1999E+01
  -4.641  0.7070E-02  0.2000E+01
  -4.631  0.6253E-02  0.2000E+01
  -4.621  0.5521E-02  0.2000E+01
  -4.611  0.4867E-02  0.2000E+01
  -4.601  0.4283E-02  0.2000E+01
  -4.591  0.3763E-02  0.2000E+01
  -4.581  0.3302E-02  0.2000E+01
  -4.571  0.2892E-02  0.2000E+01
  -4.561  0.2529E-02  0.2000E+01
  -4.551  0.2208E-02  0.2000E+01
  -4.541  0.1924E-02  0.2000E+01
  -4.531  0.1674E-02  0.2000E+01
  -4.521  0.1455E-02  0.2000E+01
  -4.511  0.1262E-02  0.2000E+01
  -4.501  0.1093E-02  0.2000E+01
  -4.491  0.9446E-03  0.2000E+01
  -4.481  0.8153E-03  0.2000E+01
  -4.471  0.7026E-03  0.2000E+01
  -4.461  0.6044E-03  0.2000E+01
  -4.451  0.5192E-03  0.2000E+01
  -4.441  0.4452E-03  0.2000E+01
  -4.431  0.3811E-03  0.2000E+01
  -4.421  0.3258E-03  0.2000E+01
  -4.411  0.2780E-03  0.2000E+01
  -4.401  0.2368E-03  0.2000E+01
  -4.391  0.2014E-03  0.2000E+01
  -4.381  0.1710E-03  0.2000E+01
  -4.371  0.1450E-03  0.2000E+01
  -4.361  0.1227E-03  0.2000E+01
  -4.351  0.1036E-03  0.2000E+01
  -4.341  0.8743E-04  0.2000E+01
  -4.331  0.7362E-04  0.2000E+01
  -4.321  0.6190E-04  0.2000E+01
  -4.311  0.5195E-04  0.2000E+01
  -4.301  0.4353E-04  0.2000E+01
  -4.291  0.3642E-04  0.2000E+01
  -4.281  0.3041E-04  0.2000E+01
  -4.271  0.2536E-04  0.2000E+01
  -4.261  0.2111E-04  0.2000E+01
  -4.251  0.1754E-04  0.2000E+01
  -4.241  0.1455E-04  0.2000E+01
  -4.231  0.1205E-04  0.2000E+01
  -4.221  0.9967E-05  0.2000E+01
  -4.211  0.8228E-05  0.2000E+01
  -4.201  0.6781E-05  0.2000E+01
  -4.191  0.5579E-05  0.2000E+01
  -4.181  0.4582E-05  0.2000E+01
  -4.171  0.3757E-05  0.2000E+01
  -4.161  0.3076E-05  0.2000E+01
  -4.151  0.2514E-05  0.2000E+01
  -4.141  0.2051E-05  0.2000E+01
  -4.131  0.1671E-05  0.2000E+01
  -4.121  0.1359E-05  0.2000E+01
  -4.111  0.1103E-05  0.2000E+01
  -4.101  0.8939E-06  0.2000E+01
  -4.091  0.7233E-06  0.2000E+01
  -4.081  0.5842E-06  0.2000E+01
  -4.071  0.4711E-06  0.2000E+01
  -4.061  0.3793E-06  0.2000E+01
  -4.051  0.3048E-06  0.2000E+01
  -4.041  0.2446E-06  0.2000E+01
  -4.031  0.1959E-06  0.2000E+01
  -4.021  0.1567E-06  0.2000E+01
  -4.011  0.1251E-06  0.2000E+01
  -4.001  0.9968E-07  0.2000E+01
  -3.991  0.7931E-07  0.2000E+01
  -3.981  0.6299E-07  0.2000E+01
  -3.971  0.4995E-07  0.2000E+01
  -3.961  0.3954E-07  0.2000E+01
  -3.951  0.3125E-07  0.2000E+01
  -3.941  0.2466E-07  0.2000E+01
  -3.931  0.1942E-07  0.2000E+01
  -3.921  0.1527E-07  0.2000E+01
  -3.911  0.1199E-07  0.2000E+01
  -3.901  0.9395E-08  0.2000E+01
  -3.891  0.7350E-08  0.2000E+01
  -3.881  0.5740E-08  0.2000E+01
  -3.871  0.4476E-08  0.2000E+01
  -3.861  0.3484E-08  0.2000E+01
  -3.851  0.2707E-08  0.2000E+01
  -3.841  0.2100E-08  0.2000E+01
  -3.831  0.1627E-08  0.2000E+01
  -3.821  0.1258E-08  0.2000E+01
  -3.811  0.9707E-09  0.2000E+01
  -3.801  0.7480E-09  0.2000E+01
  -3.791  0.5754E-09  0.2000E+01
  -3.781  0.4419E-09  0.2000E+01
  -3.771  0.3388E-09  0.2000E+01
  -3.761  0.2593E-09  0.2000E+01
  -3.751  0.1981E-09  0.2000E+01
  -3.741  0.1511E-09  0.2000E+01
  -3.731  0.1151E-09  0.2000E+01
  -3.721  0.8747E-10  0.2000E+01
  -3.711  0.6638E-10  0.2000E+01
  -3.701  0.5029E-10  0.2000E+01
  -3.691  0.3804E-10  0.2000E+01
  -3.681  0.2872E-10  0.2000E+01
  -3.671  0.2165E-10  0.2000E+01
  -3.661  0.1629E-10  0.2000E+01
  -3.651  0.1224E-10  0.2000E+01
  -3.641  0.9180E-11  0.2000E+01
  -3.631  0.6873E-11  0.2000E+01
  -3.621  0.5138E-11  0.2000E+01
  -3.611  0.3835E-11  0.2000E+01
  -3.601  0.2859E-11  0.2000E+01
  -3.591  0.2129E-11  0.2000E+01
  -3.581  0.1584E-11  0.2000E+01
  -3.571  0.1180E-11  0.2000E+01
  -3.561  0.8802E-12  0.2000E+01
  -3.551  0.6604E-12  0.2000E+01
  -3.541  0.5009E-12  0.2000E+01
  -3.531  0.3879E-12  0.2000E+01
  -3.521  0.3112E-12  0.2000E+01
  -3.511  0.2639E-12  0.2000E+01
  -3.501  0.2416E-12  0.2000E+01
  -3.491  0.2423E-12  0.2000E+01
  -3.481  0.2658E-12  0.2000E+01
  -3.471  0.3139E-12  0.2000E+01
  -3.461  0.3908E-12  0.2000E+01
  -3.451  0.5028E-12  0.2000E+01
  -3.441  0.6592E-12  0.2000E+01
  -3.431  0.8730E-12  0.2000E+01
  -3.421  0.1162E-11  0.2000E+01
  -3.411  0.1549E-11  0.2000E+01
  -3.401  0.2067E-11  0.2000E+01
  -3.391  0.2755E-11  0.2000E+01
  -3.381  0.3668E-11  0.2000E+01
  -3.371  0.4878E-11  0.2000E+01
  -3.361  0.6478E-11  0.2000E+01
  -3.351  0.8588E-11  0.2000E+01
  -3.341  0.1137E-10  0.2000E+01
  -3.331  0.1502E-10  0.2000E+01
  -3.321  0.1982E-10  0.2000E+01
  -3.311  0.2611E-10  0.2000E+01
  -3.301  0.3433E-10  0.2000E+01
  -3.291  0.4507E-10  0.2000E+01
  -3.281  0.5908E-10  0.2000E+01
  -3.271  0.7731E-10  0.2000E+01
  -3.261  0.1010E-09  0.2000E+01
  -3.251  0.1317E-09  0.2000E+01
  -3.241  0.1715E-09  0.2000E+01
  -3.231  0.2230E-09  0.2000E+01
  -3.221  0.2895E-09  0.2000E+01
  -3.211  0.3751E-09  0.2000E+01
  -3.201  0.4852E-09  0.2000E+01
  -3.191  0.6267E-09  0.2000E+01
  -3.181  0.8082E-09  0.2000E+01
  -3.171  0.1040E-08  0.2000E+01
  -3.161  0.1337E-08  0.2000E+01
  -3.151  0.1716E-08  0.2000E+01
  -3.141  0.2198E-08  0.2000E+01
  -3.131  0.2812E-08  0.2000E+01
  -3.121  0.3590E-08  0.2000E+01
  -3.111  0.4577E-08  0.2000E+01
  -3.101  0.5826E-08  0.2000E+01
  -3.091  0.7404E-08  0.2000E+01
  -3.081  0.9393E-08  0.2000E+01
  -3.071  0.1190E-07  0.2000E+01
  -3.061  0.1505E-07  0.2000E+01
  -3.051  0.1900E-07  0.2000E+01
  -3.041  0.2395E-07  0.2000E+01
  -3.031  0.3014E-07  0.2000E+01
  -3.021  0.3787E-07  0.2000E+01
  -3.011  0.4751E-07  0.2000E+01
  -3.001  0.5951E-07  0.2000E+01
  -2.991  0.7442E-07  0.2000E+01
  -2.981  0.9291E-07  0.2000E+01
  -2.971  0.1158E-06  0.2000E+01
  -2.961  0.1441E-06  0.2000E+01
  -2.951  0.1791E-06  0.2000E+01
  -2.941  0.2222E-06  0.2000E+01
  -2.931  0.2752E-06  0.2000E+01
  -2.921  0.3403E-06  0.2000E+01
  -2.911  0.4202E-06  0.2000E+01
  -2.901  0.5180E-06  0.2000E+01
  -2.891  0.6375E-06  0.2000E+01
  -2.881  0.7834E-06  0.2000E+01
  -2.871  0.9612E-06  0.2000E+01
  -2.861  0.1177E-05  0.2000E+01
  -2.851  0.1440E-05  0.2000E+01
  -2.841  0.1759E-05  0.2000E+01
  -2.831  0.2144E-05  0.2000E+01
  -2.821  0.2610E-05  0.2000E+01
  -2.811  0.3172E-05  0.2000E+01
  -2.801  0.3849E-05  0.2000E+01
  -2.791  0.4664E-05  0.2000E+01
  -2.781  0.5642E-05  0.2000E+01
  -2.771  0.6815E-05  0.2000E+01
  -2.761  0.8218E-05  0.2000E+01
  -2.751  0.9896E-05  0.2000E+01
  -2.741  0.1190E-04  0.2000E+01
  -2.731  0.1428E-04  0.2000E+01
  -2.721  0.1712E-04  0.2000E+01
  -2.711  0.2048E-04  0.2000E+01
  -2.701  0.2447E-04  0.2000E+01
  -2.691  0.2920E-04  0.2000E+01
  -2.681  0.3478E-04  0.2000E+01
  -2.671  0.4137E-04  0.2000E+01
  -2.661  0.4912E-04  0.2000E+01
  -2.651  0.5825E-04  0.2000E+01
  -2.641  0.6896E-04  0.2000E+01
  -2.631  0.8152E-04  0.2000E+01
  -2.621  0.9623E-04  0.2000E+01
  -2.611  0.1134E-03  0.2000E+01
  -2.601  0.1335E-03  0.2000E+01
  -2.591  0.1568E-03  0.2000E+01
  -2.581  0.1840E-03  0.2000E+01
  -2.571  0.2155E-03  0.2000E+01
  -2.561  0.2521E-03  0.2000E+01
  -2.551  0.2944E-03  0.2000E+01
  -2.541  0.3434E-03  0.2000E+01
  -2.531  0.3999E-03  0.2000E+01
  -2.521  0.4649E-03  0.2000E+01
  -2.511  0.5398E-03  0.2000E+01
  -2.501  0.6258E-03  0.2000E+01
  -2.491  0.7244E-03  0.2000E+01
  -2.481  0.8373E-03  0.2000E+01
  -2.471  0.9663E-03  0.2000E+01
  -2.461  0.1114E-02  0.2000E+01
  -2.451  0.1282E-02  0.2000E+01
  -2.441  0.1473E-02  0.2000E+01
  -2.431  0.1690E-02  0.2000E+01
  -2.421  0.1936E-02  0.2000E+01
  -2.411  0.2215E-02  0.2000E+01
  -2.401  0.2530E-02  0.2000E+01
  -2.391  0.2886E-02  0.2000E+01
  -2.381  0.3287E-02  0.2000E+01
  -2.371  0.3739E-02  0.2000E+01
  -2.361  0.4246E-02  0.2000E+01
  -2.351  0.4816E-02  0.2000E+01
  -2.341  0.5454E-02  0.2000E+01
  -2.331  0.6168E-02  0.2000E+01
  -2.321  0.6965E-02  0.2001E+01
  -2.311  0.7853E-02  0.2001E+01
  -2.301  0.8843E-02  0.2001E+01
  -2.291  0.9943E-02  0.2001E+01
  -2.281  0.1116E-01  0.2001E+01
  -2.271  0.1252E-01  0.2001E+01
  -2.261  0.1401E-01  0.2001E+01
  -2.251  0.1567E-01  0.2001E+01
  -2.241  0.1749E-01  0.2002E+01
  -2.231  0.1950E-01  0.2002E+01
  -2.221  0.2171E-01  0.2002E+01
  -2.211  0.2413E-01  0.2002E+01
  -2.201  0.2679E-01  0.2002E+01
  -2.191  0.2970E-01  0.2003E+01
  -2.181  0.3288E-01  0.2003E+01
  -2.171  0.3635E-01  0.2003E+01
  -2.161  0.4013E-01  0.2004E+01
  -2.151  0.4424E-01  0.2004E+01
  -2.141  0.4870E-01  0.2005E+01
  -2.131  0.5354E-01  0.2005E+01
  -2.121  0.5878E-01  0.2006E+01
  -2.111  0.6444E-01  0.2007E+01
  -2.101  0.7054E-01  0.2007E+01
  -2.091  0.7712E-01  0.2008E+01
  -2.081  0.8420E-01  0.2009E+01
  -2.071  0.9180E-01  0.2010E+01
  -2.061  0.9994E-01  0.2011E+01
  -2.051  0.1087E+00  0.2012E+01
  -2.041  0.1180E+00  0.2013E+01
  -2.031  0.1279E+00  0.2014E+01
  -2.021  0.1385E+00  0.2016E+01
  -2.011  0.1498E+00  0.2017E+01
  -2.001  0.1617E+00  0.2019E+01
  -1.991  0.1744E+00  0.2021E+01
  -1.981  0.1878E+00  0.2022E+01
  -1.971  0.2020E+00  0.2024E+01
  -1.961  0.2169E+00  0.2027E+01
  -1.951  0.2327E+00  0.2029E+01
  -1.941  0.2492E+00  0.2031E+01
  -1.931  0.2666E+00  0.2034E+01
  -1.921  0.2847E+00  0.2037E+01
  -1.911  0.3037E+00  0.2040E+01
  -1.901  0.3236E+00  0.2043E+01
  -1.891  0.3442E+00  0.2047E+01
  -1.881  0.3657E+00  0.2050E+01
  -1.871  0.3881E+00  0.2054E+01
  -1.861  0.4112E+00  0.2058E+01
  -1.851  0.4351E+00  0.2063E+01
  -1.841  0.4599E+00  0.2067E+01
  -1.831  0.4853E+00  0.2072E+01
  -1.821  0.5115E+00  0.2077E+01
  -1.811  0.5385E+00  0.2083E+01
  -1.801  0.5660E+00  0.2088E+01
  -1.791  0.5942E+00  0.2094E+01
  -1.781  0.6230E+00  0.2100E+01
  -1.771  0.6524E+00  0.2107E+01
  -1.761  0.6822E+00  0.2114E+01
  -1.751  0.7124E+00  0.2121E+01
  -1.741  0.7431E+00  0.2128E+01
  -1.731  0.7740E+00  0.2136E+01
  -1.721  0.8052E+00  0.2144E+01
  -1.711  0.8366E+00  0.2153E+01
  -1.701  0.8681E+00  0.2161E+01
  -1.691  0.8996E+00  0.2170E+01
  -1.681  0.9310E+00  0.2180E+01
  -1.671  0.9624E+00  0.2189E+01
  -1.661  0.9935E+00  0.2199E+01
  -1.651  0.1024E+01  0.2209E+01
  -1.641  0.1055E+01  0.2220E+01
  -1.631  0.1085E+01  0.2231E+01
  -1.621  0.1114E+01  0.2242E+01
  -1.611  0.1143E+01  0.2253E+01
  -1.601  0.1171E+01  0.2265E+01
  -1.591  0.1199E+01  0.2277E+01
  -1.581  0.1225E+01  0.2289E+01
  -1.571  0.1251E+01  0.2302E+01
  -1.561  0.1276E+01  0.2315E+01
  -1.551  0.1299E+01  0.2328E+01
  -1.541  0.1322E+01  0.2341E+01
  -1.531  0.1343E+01  0.2354E+01
  -1.521  0.1363E+01  0.2368E+01
  -1.511  0.1382E+01  0.2382E+01
  -1.501  0.1400E+01  0.2396E+01
  -1.491  0.1416E+01  0.2410E+01
  -1.481  0.1430E+01  0.2424E+01
  -1.471  0.1443E+01  0.2439E+01
  -1.461  0.1455E+01  0.2453E+01
  -1.451  0.1466E+01  0.2468E+01
  -1.441  0.1474E+01  0.2482E+01
  -1.431  0.1482E+01  0.2497E+01
  -1.421  0.1487E+01  0.2512E+01
  -1.411  0.1492E+01  0.2527E+01
  -1.401  0.1494E+01  0.2542E+01
  -1.391  0.1496E+01  0.2557E+01
  -1.381  0.1496E+01  0.2572E+01
  -1.371  0.1494E+01  0.2587E+01
  -1.361  0.1491E+01  0.2602E+01
  -1.351  0.1487E+01  0.2617E+01
  -1.341  0.1481E+01  0.2631E+01
  -1.331  0.1474E+01  0.2646E+01
  -1.321  0.1466E+01  0.2661E+01
  -1.311  0.1457E+01  0.2675E+01
  -1.301  0.1447E+01  0.2690E+01
  -1.291  0.1436E+01  0.2704E+01
  -1.281  0.1423E+01  0.2719E+01
  -1.271  0.1410E+01  0.2733E+01
  -1.261  0.1396E+01  0.2747E+01
  -1.251  0.1381E+01  0.2760E+01
  -1.241  0.1366E+01  0.2774E+01
  -1.231  0.1349E+01  0.2788E+01
  -1.221  0.1333E+01  0.2801E+01
  -1.211  0.1315E+01  0.2814E+01
  -1.201  0.1297E+01  0.2827E+01
  -1.191  0.1279E+01  0.2840E+01
  -1.181  0.1261E+01  0.2852E+01
  -1.171  0.1242E+01  0.2865E+01
  -1.161  0.1223E+01  0.2877E+01
  -1.151  0.1204E+01  0.2889E+01
  -1.141  0.1184E+01  0.2901E+01
  -1.131  0.1165E+01  0.2913E+01
  -1.121  0.1146E+01  0.2924E+01
  -1.111  0.1126E+01  0.2935E+01
  -1.101  0.1107E+01  0.2946E+01
  -1.091  0.1088E+01  0.2957E+01
  -1.081  0.1069E+01  0.2968E+01
  -1.071  0.1050E+01  0.2978E+01
  -1.061  0.1031E+01  0.2989E+01
  -1.051  0.1013E+01  0.2999E+01
  -1.041  0.9947E+00  0.3009E+01
  -1.031  0.9769E+00  0.3019E+01
  -1.021  0.9594E+00  0.3028E+01
  -1.011  0.9422E+00  0.3038E+01
  -1.001  0.9253E+00  0.3047E+01
  -0.991  0.9088E+00  0.3056E+01
  -0.981  0.8927E+00  0.3065E+01
  -0.971  0.8770E+00  0.3074E+01
  -0.961  0.8616E+00  0.3082E+01
  -0.951  0.8466E+00  0.3091E+01
  -0.941  0.8319E+00  0.3099E+01
  -0.931  0.8177E+00  0.3107E+01
  -0.921  0.8038E+00  0.3115E+01
  -0.911  0.7903E+00  0.3123E+01
  -0.901  0.7772E+00  0.3131E+01
  -0.891  0.7645E+00  0.3139E+01
  -0.881  0.7521E+00  0.3146E+01
  -0.871  0.7401E+00  0.3153E+01
  -0.861  0.7284E+00  0.3161E+01
  -0.851  0.7171E+00  0.3168E+01
  -0.841  0.7061E+00  0.3175E+01
  -0.831  0.6954E+00  0.3182E+01
  -0.821  0.6851E+00  0.3189E+01
  -0.811  0.6750E+00  0.3196E+01
  -0.801  0.6653E+00  0.3202E+01
  -0.791  0.6558E+00  0.3209E+01
  -0.781  0.6466E+00  0.3215E+01
  -0.771  0.6377E+00  0.3222E+01
  -0.761  0.6290E+00  0.3228E+01
  -0.751  0.6206E+00  0.3234E+01
  -0.741  0.6125E+00  0.3240E+01
  -0.731  0.6045E+00  0.3246E+01
  -0.721  0.5968E+00  0.3252E+01
  -0.711  0.5893E+00  0.3258E+01
  -0.701  0.5820E+00  0.3264E+01
  -0.691  0.5749E+00  0.3270E+01
  -0.681  0.5679E+00  0.3275E+01
  -0.671  0.5612E+00  0.3281E+01
  -0.661  0.5546E+00  0.3287E+01
  -0.651  0.5482E+00  0.3292E+01
  -0.641  0.5420E+00  0.3297E+01
  -0.631  0.5359E+00  0.3303E+01
  -0.621  0.5299E+00  0.3308E+01
  -0.611  0.5241E+00  0.3313E+01
  -0.601  0.5185E+00  0.3319E+01
  -0.591  0.5129E+00  0.3324E+01
  -0.581  0.5075E+00  0.3329E+01
  -0.571  0.5022E+00  0.3334E+01
  -0.561  0.4970E+00  0.3339E+01
  -0.551  0.4920E+00  0.3344E+01
  -0.541  0.4870E+00  0.3349E+01
  -0.531  0.4821E+00  0.3353E+01
  -0.521  0.4774E+00  0.3358E+01
  -0.511  0.4727E+00  0.3363E+01
  -0.501  0.4681E+00  0.3368E+01
  -0.491  0.4637E+00  0.3372E+01
  -0.481  0.4593E+00  0.3377E+01
  -0.471  0.4549E+00  0.3381E+01
  -0.461  0.4507E+00  0.3386E+01
  -0.451  0.4465E+00  0.3390E+01
  -0.441  0.4424E+00  0.3395E+01
  -0.431  0.4384E+00  0.3399E+01
  -0.421  0.4345E+00  0.3403E+01
  -0.411  0.4306E+00  0.3408E+01
  -0.401  0.4268E+00  0.3412E+01
  -0.391  0.4230E+00  0.3416E+01
  -0.381  0.4193E+00  0.3420E+01
  -0.371  0.4156E+00  0.3425E+01
  -0.361  0.4120E+00  0.3429E+01
  -0.351  0.4085E+00  0.3433E+01
  -0.341  0.4050E+00  0.3437E+01
  -0.331  0.4016E+00  0.3441E+01
  -0.321  0.3982E+00  0.3445E+01
  -0.311  0.3948E+00  0.3449E+01
  -0.301  0.3915E+00  0.3453E+01
  -0.291  0.3883E+00  0.3457E+01
  -0.281  0.3851E+00  0.3460E+01
  -0.271  0.3819E+00  0.3464E+01
  -0.261  0.3788E+00  0.3468E+01
  -0.251  0.3757E+00  0.3472E+01
  -0.241  0.3726E+00  0.3476E+01
  -0.231  0.3696E+00  0.3479E+01
  -0.221  0.3666E+00  0.3483E+01
  -0.211  0.3637E+00  0.3487E+01
  -0.201  0.3608E+00  0.3490E+01
  -0.191  0.3580E+00  0.3494E+01
  -0.181  0.3552E+00  0.3497E+01
  -0.171  0.3524E+00  0.3501E+01
  -0.161  0.3496E+00  0.3504E+01
  -0.151  0.3469E+00  0.3508E+01
  -0.141  0.3442E+00  0.3511E+01
  -0.131  0.3416E+00  0.3515E+01
  -0.121  0.3390E+00  0.3518E+01
  -0.111  0.3364E+00  0.3521E+01
  -0.101  0.3339E+00  0.3525E+01
  -0.091  0.3314E+00  0.3528E+01
  -0.081  0.3290E+00  0.3531E+01
  -0.071  0.3265E+00  0.3535E+01
  -0.061  0.3241E+00  0.3538E+01
  -0.051  0.3218E+00  0.3541E+01
  -0.041  0.3194E+00  0.3544E+01
  -0.031  0.3171E+00  0.3547E+01
  -0.021  0.3149E+00  0.3551E+01
  -0.011  0.3126E+00  0.3554E+01
  -0.001  0.3104E+00  0.3557E+01
   0.009  0.3082E+00  0.3560E+01
   0.019  0.3060E+00  0.3563E+01
   0.029  0.3039E+00  0.3566E+01
   0.039  0.3017E+00  0.3569E+01
   0.049  0.2996E+00  0.3572E+01
   0.059  0.2976E+00  0.3575E+01
   0.069  0.2955E+00  0.3578E+01
   0.079  0.2934E+00  0.3581E+01
   0.089  0.2914E+00  0.3584E+01
   0.099  0.2894E+00  0.3587E+01
   0.109  0.2874E+00  0.3590E+01
   0.119  0.2854E+00  0.3592E+01
   0.129  0.2835E+00  0.3595E+01
   0.139  0.2815E+00  0.3598E+01
   0.149  0.2796E+00  0.3601E+01
   0.159  0.2776E+00  0.3604E+01
   0.169  0.2757E+00  0.3606E+01
   0.179  0.2738E+00  0.3609E+01
   0.189  0.2720E+00  0.3612E+01
   0.199  0.2701E+00  0.3614E+01
   0.209  0.2682E+00  0.3617E+01
   0.219  0.2664E+00  0.3620E+01
   0.229  0.2646E+00  0.3622E+01
   0.239  0.2628E+00  0.3625E+01
   0.249  0.2610E+00  0.3628E+01
   0.259  0.2593E+00  0.3630E+01
   0.269  0.2575E+00  0.3633E+01
   0.279  0.2558E+00  0.3635E+01
   0.289  0.2542E+00  0.3638E+01
   0.299  0.2525E+00  0.3641E+01
   0.309  0.2509E+00  0.3643E+01
   0.319  0.2493E+00  0.3646E+01
   0.329  0.2478E+00  0.3648E+01
   0.339  0.2463E+00  0.3650E+01
   0.349  0.2449E+00  0.3653E+01
   0.359  0.2435E+00  0.3655E+01
   0.369  0.2422E+00  0.3658E+01
   0.379  0.2409E+00  0.3660E+01
   0.389  0.2396E+00  0.3663E+01
   0.399  0.2385E+00  0.3665E+01
   0.409  0.2374E+00  0.3667E+01
   0.419  0.2364E+00  0.3670E+01
   0.429  0.2354E+00  0.3672E+01
   0.439  0.2346E+00  0.3674E+01
   0.449  0.2338E+00  0.3677E+01
   0.459  0.2331E+00  0.3679E+01
   0.469  0.2325E+00  0.3681E+01
   0.479  0.2320E+00  0.3684E+01
   0.489  0.2317E+00  0.3686E+01
   0.499  0.2314E+00  0.3688E+01
   0.509  0.2312E+00  0.3691E+01
   0.519  0.2312E+00  0.3693E+01
   0.529  0.2313E+00  0.3695E+01
   0.539  0.2316E+00  0.3698E+01
   0.549  0.2320E+00  0.3700E+01
   0.559  0.2325E+00  0.3702E+01
   0.569  0.2333E+00  0.3705E+01
   0.579  0.2342E+00  0.3707E+01
   0.589  0.2352E+00  0.3709E+01
   0.599  0.2365E+00  0.3712E+01
   0.609  0.2380E+00  0.3714E+01
   0.619  0.2396E+00  0.3716E+01
   0.629  0.2415E+00  0.3719E+01
   0.639  0.2437E+00  0.3721E+01
   0.649  0.2460E+00  0.3724E+01
   0.659  0.2487E+00  0.3726E+01
   0.669  0.2516E+00  0.3729E+01
   0.679  0.2547E+00  0.3731E+01
   0.689  0.2582E+00  0.3734E+01
   0.699  0.2619E+00  0.3736E+01
   0.709  0.2660E+00  0.3739E+01
   0.719  0.2703E+00  0.3742E+01
   0.729  0.2750E+00  0.3745E+01
   0.739  0.2801E+00  0.3747E+01
   0.749  0.2855E+00  0.3750E+01
   0.759  0.2912E+00  0.3753E+01
   0.769  0.2973E+00  0.3756E+01
   0.779  0.3038E+00  0.3759E+01
   0.789  0.3107E+00  0.3762E+01
   0.799  0.3179E+00  0.3765E+01
   0.809  0.3256E+00  0.3769E+01
   0.819  0.3336E+00  0.3772E+01
   0.829  0.3421E+00  0.3775E+01
   0.839  0.3509E+00  0.3779E+01
   0.849  0.3602E+00  0.3783E+01
   0.859  0.3698E+00  0.3786E+01
   0.869  0.3799E+00  0.3790E+01
   0.879  0.3903E+00  0.3794E+01
   0.889  0.4012E+00  0.3798E+01
   0.899  0.4124E+00  0.3802E+01
   0.909  0.4240E+00  0.3806E+01
   0.919  0.4360E+00  0.3811E+01
   0.929  0.4483E+00  0.3815E+01
   0.939  0.4609E+00  0.3820E+01
   0.949  0.4739E+00  0.3825E+01
   0.959  0.4872E+00  0.3829E+01
   0.969  0.5008E+00  0.3834E+01
   0.979  0.5147E+00  0.3840E+01
   0.989  0.5288E+00  0.3845E+01
   0.999  0.5432E+00  0.3850E+01
   1.009  0.5577E+00  0.3856E+01
   1.019  0.5724E+00  0.3862E+01
   1.029  0.5873E+00  0.3867E+01
   1.039  0.6024E+00  0.3873E+01
   1.049  0.6175E+00  0.3880E+01
   1.059  0.6327E+00  0.3886E+01
   1.069  0.6479E+00  0.3892E+01
   1.079  0.6632E+00  0.3899E+01
   1.089  0.6784E+00  0.3906E+01
   1.099  0.6936E+00  0.3913E+01
   1.109  0.7087E+00  0.3920E+01
   1.119  0.7237E+00  0.3927E+01
   1.129  0.7386E+00  0.3935E+01
   1.139  0.7534E+00  0.3942E+01
   1.149  0.7679E+00  0.3950E+01
   1.159  0.7822E+00  0.3958E+01
   1.169  0.7963E+00  0.3966E+01
   1.179  0.8100E+00  0.3974E+01
   1.189  0.8235E+00  0.3982E+01
   1.199  0.8367E+00  0.3990E+01
   1.209  0.8495E+00  0.3999E+01
   1.219  0.8620E+00  0.4007E+01
   1.229  0.8741E+00  0.4016E+01
   1.239  0.8858E+00  0.4025E+01
   1.249  0.8971E+00  0.4034E+01
   1.259  0.9080E+00  0.4043E+01
   1.269  0.9184E+00  0.4052E+01
   1.279  0.9283E+00  0.4061E+01
   1.289  0.9379E+00  0.4071E+01
   1.299  0.9469E+00  0.4080E+01
   1.309  0.9555E+00  0.4090E+01
   1.319  0.9637E+00  0.4100E+01
   1.329  0.9713E+00  0.4109E+01
   1.339  0.9785E+00  0.4119E+01
   1.349  0.9853E+00  0.4129E+01
   1.359  0.9916E+00  0.4139E+01
   1.369  0.9974E+00  0.4149E+01
   1.379  0.1003E+01  0.4159E+01
   1.389  0.1008E+01  0.4169E+01
   1.399  0.1012E+01  0.4179E+01
   1.409  0.1017E+01  0.4189E+01
   1.419  0.1020E+01  0.4199E+01
   1.429  0.1024E+01  0.4210E+01
   1.439  0.1027E+01  0.4220E+01
   1.449  0.1030E+01  0.4230E+01
   1.459  0.1032E+01  0.4240E+01
   1.469  0.1034E+01  0.4251E+01
   1.479  0.1036E+01  0.4261E+01
   1.489  0.1038E+01  0.4272E+01
   1.499  0.1039E+01  0.4282E+01
   1.509  0.1040E+01  0.4292E+01
   1.519  0.1041E+01  0.4303E+01
   1.529  0.1042E+01  0.4313E+01
   1.539  0.1042E+01  0.4324E+01
   1.549  0.1043E+01  0.4334E+01
   1.559  0.1043E+01  0.4344E+01
   1.569  0.1043E+01  0.4355E+01
   1.579  0.1043E+01  0.4365E+01
   1.589  0.1043E+01  0.4376E+01
   1.599  0.1043E+01  0.4386E+01
   1.609  0.1043E+01  0.4397E+01
   1.619  0.1043E+01  0.4407E+01
   1.629  0.1043E+01  0.4417E+01
   1.639  0.1043E+01  0.4428E+01
   1.649  0.1043E+01  0.4438E+01
   1.659  0.1043E+01  0.4449E+01
   1.669  0.1043E+01  0.4459E+01
   1.679  0.1043E+01  0.4470E+01
   1.689  0.1043E+01  0.4480E+01
   1.699  0.1043E+01  0.4490E+01
   1.709  0.1043E+01  0.4501E+01
   1.719  0.1044E+01  0.4511E+01
   1.729  0.1044E+01  0.4522E+01
   1.739  0.1045E+01  0.4532E+01
   1.749  0.1045E+01  0.4543E+01
   1.759  0.1046E+01  0.4553E+01
   1.769  0.1046E+01  0.4564E+01
   1.779  0.1047E+01  0.4574E+01
   1.789  0.1048E+01  0.4585E+01
   1.799  0.1049E+01  0.4595E+01
   1.809  0.1051E+01  0.4606E+01
   1.819  0.1052E+01  0.4616E+01
   1.829  0.1054E+01  0.4627E+01
   1.839  0.1055E+01  0.4637E+01
   1.849  0.1057E+01  0.4648E+01
   1.859  0.1059E+01  0.4658E+01
   1.869  0.1061E+01  0.4669E+01
   1.879  0.1063E+01  0.4680E+01
   1.889  0.1065E+01  0.4690E+01
   1.899  0.1068E+01  0.4701E+01
   1.909  0.1070E+01  0.4712E+01
   1.919  0.1073E+01  0.4722E+01
   1.929  0.1076E+01  0.4733E+01
   1.939  0.1079E+01  0.4744E+01
   1.949  0.1082E+01  0.4755E+01
   1.959  0.1085E+01  0.4766E+01
   1.969  0.1089E+01  0.4776E+01
   1.979  0.1092E+01  0.4787E+01
   1.989  0.1096E+01  0.4798E+01
   1.999  0.1100E+01  0.4809E+01
   2.009  0.1104E+01  0.4820E+01
   2.019  0.1108E+01  0.4831E+01
   2.029  0.1113E+01  0.4843E+01
   2.039  0.1117E+01  0.4854E+01
   2.049  0.1122E+01  0.4865E+01
   2.059  0.1127E+01  0.4876E+01
   2.069  0.1132E+01  0.4888E+01
   2.079  0.1137E+01  0.4899E+01
   2.089  0.1142E+01  0.4910E+01
   2.099  0.1148E+01  0.4922E+01
   2.109  0.1153E+01  0.4933E+01
   2.119  0.1159E+01  0.4945E+01
   2.129  0.1164E+01  0.4957E+01
   2.139  0.1170E+01  0.4968E+01
   2.149  0.1176E+01  0.4980E+01
   2.159  0.1182E+01  0.4992E+01
   2.169  0.1188E+01  0.5004E+01
   2.179  0.1195E+01  0.5016E+01
   2.189  0.1201E+01  0.5028E+01
   2.199  0.1207E+01  0.5040E+01
   2.209  0.1214E+01  0.5052E+01
   2.219  0.1220E+01  0.5064E+01
   2.229  0.1227E+01  0.5076E+01
   2.239  0.1234E+01  0.5089E+01
   2.249  0.1240E+01  0.5101E+01
   2.259  0.1247E+01  0.5114E+01
   2.269  0.1254E+01  0.5126E+01
   2.279  0.1260E+01  0.5139E+01
   2.289  0.1267E+01  0.5151E+01
   2.299  0.1274E+01  0.5164E+01
   2.309  0.1280E+01  0.5177E+01
   2.319  0.1287E+01  0.5190E+01
   2.329  0.1293E+01  0.5203E+01
   2.339  0.1300E+01  0.5216E+01
   2.349  0.1306E+01  0.5229E+01
   2.359  0.1313E+01  0.5242E+01
   2.369  0.1319E+01  0.5255E+01
   2.379  0.1325E+01  0.5268E+01
   2.389  0.1331E+01  0.5282E+01
   2.399  0.1337E+01  0.5295E+01
   2.409  0.1343E+01  0.5309E+01
   2.419  0.1349E+01  0.5322E+01
   2.429  0.1355E+01  0.5336E+01
   2.439  0.1360E+01  0.5349E+01
   2.449  0.1365E+01  0.5363E+01
   2.459  0.1371E+01  0.5377E+01
   2.469  0.1376E+01  0.5390E+01
   2.479  0.1380E+01  0.5404E+01
   2.489  0.1385E+01  0.5418E+01
   2.499  0.1389E+01  0.5432E+01
   2.509  0.1394E+01  0.5446E+01
   2.519  0.1398E+01  0.5460E+01
   2.529  0.1402E+01  0.5474E+01
   2.539  0.1405E+01  0.5488E+01
   2.549  0.1409E+01  0.5502E+01
   2.559  0.1412E+01  0.5516E+01
   2.569  0.1415E+01  0.5530E+01
   2.579  0.1418E+01  0.5544E+01
   2.589  0.1421E+01  0.5559E+01
   2.599  0.1423E+01  0.5573E+01
   2.609  0.1425E+01  0.5587E+01
   2.619  0.1427E+01  0.5601E+01
   2.629  0.1429E+01  0.5616E+01
   2.639  0.1431E+01  0.5630E+01
   2.649  0.1432E+01  0.5644E+01
   2.659  0.1433E+01  0.5659E+01
   2.669  0.1434E+01  0.5673E+01
   2.679  0.1435E+01  0.5687E+01
   2.689  0.1435E+01  0.5702E+01
   2.699  0.1436E+01  0.5716E+01
   2.709  0.1436E+01  0.5730E+01
   2.719  0.1436E+01  0.5745E+01
   2.729  0.1436E+01  0.5759E+01
   2.739  0.1436E+01  0.5773E+01
   2.749  0.1435E+01  0.5788E+01
   2.759  0.1435E+01  0.5802E+01
   2.769  0.1434E+01  0.5816E+01
   2.779  0.1433E+01  0.5831E+01
   2.789  0.1432E+01  0.5845E+01
   2.799  0.1431E+01  0.5859E+01
   2.809  0.1430E+01  0.5874E+01
   2.819  0.1428E+01  0.5888E+01
   2.829  0.1427E+01  0.5902E+01
   2.839  0.1425E+01  0.5916E+01
   2.849  0.1423E+01  0.5931E+01
   2.859  0.1422E+01  0.5945E+01
   2.869  0.1420E+01  0.5959E+01
   2.879  0.1418E+01  0.5973E+01
   2.889  0.1416E+01  0.5987E+01
   2.899  0.1414E+01  0.6002E+01
   2.909  0.1412E+01  0.6016E+01
   2.919  0.1410E+01  0.6030E+01
   2.929  0.1408E+01  0.6044E+01
   2.939  0.1406E+01  0.6058E+01
   2.949  0.1404E+01  0.6072E+01
   2.959  0.1401E+01  0.6086E+01
   2.969  0.1399E+01  0.6100E+01
   2.979  0.1397E+01  0.6114E+01
   2.989  0.1395E+01  0.6128E+01
   2.999  0.1393E+01  0.6142E+01
   3.009  0.1391E+01  0.6156E+01
   3.019  0.1388E+01  0.6170E+01
   3.029  0.1386E+01  0.6183E+01
   3.039  0.1384E+01  0.6197E+01
   3.049  0.1382E+01  0.6211E+01
   3.059  0.1380E+01  0.6225E+01
   3.069  0.1378E+01  0.6239E+01
   3.079  0.1376E+01  0.6253E+01
   3.089  0.1374E+01  0.6266E+01
   3.099  0.1372E+01  0.6280E+01
   3.109  0.1370E+01  0.6294E+01
   3.119  0.1368E+01  0.6307E+01
   3.129  0.1366E+01  0.6321E+01
   3.139  0.1365E+01  0.6335E+01
   3.149  0.1363E+01  0.6348E+01
   3.159  0.1361E+01  0.6362E+01
   3.169  0.1359E+01  0.6375E+01
   3.179  0.1357E+01  0.6389E+01
   3.189  0.1355E+01  0.6403E+01
   3.199  0.1354E+01  0.6416E+01
   3.209  0.1352E+01  0.6430E+01
   3.219  0.1350E+01  0.6443E+01
   3.229  0.1348E+01  0.6457E+01
   3.239  0.1346E+01  0.6470E+01
   3.249  0.1344E+01  0.6484E+01
   3.259  0.1342E+01  0.6497E+01
   3.269  0.1340E+01  0.6510E+01
   3.279  0.1338E+01  0.6524E+01
   3.289  0.1336E+01  0.6537E+01
   3.299  0.1334E+01  0.6550E+01
   3.309  0.1332E+01  0.6564E+01
   3.319  0.1330E+01  0.6577E+01
   3.329  0.1328E+01  0.6590E+01
   3.339  0.1326E+01  0.6604E+01
   3.349  0.1324E+01  0.6617E+01
   3.359  0.1321E+01  0.6630E+01
   3.369  0.1319E+01  0.6643E+01
   3.379  0.1317E+01  0.6656E+01
   3.389  0.1314E+01  0.6670E+01
   3.399  0.1312E+01  0.6683E+01
   3.409  0.1309E+01  0.6696E+01
   3.419  0.1307E+01  0.6709E+01
   3.429  0.1304E+01  0.6722E+01
   3.439  0.1301E+01  0.6735E+01
   3.449  0.1299E+01  0.6748E+01
   3.459  0.1296E+01  0.6761E+01
   3.469  0.1293E+01  0.6774E+01
   3.479  0.1291E+01  0.6787E+01
   3.489  0.1288E+01  0.6800E+01
   3.499  0.1285E+01  0.6812E+01
   3.509  0.1282E+01  0.6825E+01
   3.519  0.1279E+01  0.6838E+01
   3.529  0.1276E+01  0.6851E+01
   3.539  0.1273E+01  0.6864E+01
   3.549  0.1270E+01  0.6876E+01
   3.559  0.1267E+01  0.6889E+01
   3.569  0.1264E+01  0.6902E+01
   3.579  0.1261E+01  0.6914E+01
   3.589  0.1258E+01  0.6927E+01
   3.599  0.1255E+01  0.6939E+01
   3.609  0.1252E+01  0.6952E+01
   3.619  0.1249E+01  0.6964E+01
   3.629  0.1246E+01  0.6977E+01
   3.639  0.1243E+01  0.6989E+01
   3.649  0.1239E+01  0.7002E+01
   3.659  0.1236E+01  0.7014E+01
   3.669  0.1232E+01  0.7026E+01
   3.679  0.1229E+01  0.7039E+01
   3.689  0.1225E+01  0.7051E+01
   3.699  0.1222E+01  0.7063E+01
   3.709  0.1218E+01  0.7075E+01
   3.719  0.1214E+01  0.7087E+01
   3.729  0.1210E+01  0.7099E+01
   3.739  0.1206E+01  0.7111E+01
   3.749  0.1201E+01  0.7124E+01
   3.759  0.1197E+01  0.7135E+01
   3.769  0.1192E+01  0.7147E+01
   3.779  0.1187E+01  0.7159E+01
   3.789  0.1182E+01  0.7171E+01
   3.799  0.1177E+01  0.7183E+01
   3.809  0.1172E+01  0.7195E+01
   3.819  0.1167E+01  0.7206E+01
   3.829  0.1161E+01  0.7218E+01
   3.839  0.1155E+01  0.7229E+01
   3.849  0.1149E+01  0.7241E+01
   3.859  0.1143E+01  0.7252E+01
   3.869  0.1136E+01  0.7264E+01
   3.879  0.1130E+01  0.7275E+01
   3.889  0.1123E+01  0.7286E+01
   3.899  0.1116E+01  0.7297E+01
   3.909  0.1108E+01  0.7308E+01
   3.919  0.1101E+01  0.7319E+01
   3.929  0.1093E+01  0.7330E+01
   3.939  0.1085E+01  0.7341E+01
   3.949  0.1077E+01  0.7352E+01
   3.959  0.1068E+01  0.7363E+01
   3.969  0.1060E+01  0.7373E+01
   3.979  0.1051E+01  0.7384E+01
   3.989  0.1042E+01  0.7394E+01
   3.999  0.1033E+01  0.7405E+01
   4.009  0.1023E+01  0.7415E+01
   4.019  0.1014E+01  0.7425E+01
   4.029  0.1004E+01  0.7435E+01
   4.039  0.9943E+00  0.7445E+01
   4.049  0.9843E+00  0.7455E+01
   4.059  0.9741E+00  0.7464E+01
   4.069  0.9639E+00  0.7474E+01
   4.079  0.9535E+00  0.7484E+01
   4.089  0.9430E+00  0.7493E+01
   4.099  0.9324E+00  0.7502E+01
   4.109  0.9217E+00  0.7512E+01
   4.119  0.9110E+00  0.7521E+01
   4.129  0.9001E+00  0.7530E+01
   4.139  0.8893E+00  0.7539E+01
   4.149  0.8783E+00  0.7547E+01
   4.159  0.8674E+00  0.7556E+01
   4.169  0.8564E+00  0.7565E+01
   4.179  0.8454E+00  0.7573E+01
   4.189  0.8343E+00  0.7581E+01
   4.199  0.8233E+00  0.7590E+01
   4.209  0.8123E+00  0.7598E+01
   4.219  0.8014E+00  0.7606E+01
   4.229  0.7904E+00  0.7614E+01
   4.239  0.7795E+00  0.7622E+01
   4.249  0.7686E+00  0.7629E+01
   4.259  0.7578E+00  0.7637E+01
   4.269  0.7471E+00  0.7644E+01
   4.279  0.7364E+00  0.7652E+01
   4.289  0.7258E+00  0.7659E+01
   4.299  0.7153E+00  0.7666E+01
   4.309  0.7049E+00  0.7673E+01
   4.319  0.6946E+00  0.7680E+01
   4.329  0.6843E+00  0.7687E+01
   4.339  0.6742E+00  0.7694E+01
   4.349  0.6642E+00  0.7700E+01
   4.359  0.6542E+00  0.7707E+01
   4.369  0.6444E+00  0.7713E+01
   4.379  0.6347E+00  0.7720E+01
   4.389  0.6251E+00  0.7726E+01
   4.399  0.6157E+00  0.7732E+01
   4.409  0.6063E+00  0.7738E+01
   4.419  0.5971E+00  0.7744E+01
   4.429  0.5880E+00  0.7750E+01
   4.439  0.5790E+00  0.7756E+01
   4.449  0.5701E+00  0.7761E+01
   4.459  0.5613E+00  0.7767E+01
   4.469  0.5527E+00  0.7773E+01
   4.479  0.5441E+00  0.7778E+01
   4.489  0.5357E+00  0.7783E+01
   4.499  0.5274E+00  0.7789E+01
   4.509  0.5191E+00  0.7794E+01
   4.519  0.5110E+00  0.7799E+01
   4.529  0.5030E+00  0.7804E+01
   4.539  0.4951E+00  0.7809E+01
   4.549  0.4873E+00  0.7814E+01
   4.559  0.4795E+00  0.7819E+01
   4.569  0.4719E+00  0.7823E+01
   4.579  0.4643E+00  0.7828E+01
   4.589  0.4568E+00  0.7832E+01
   4.599  0.4494E+00  0.7837E+01
   4.609  0.4421E+00  0.7841E+01
   4.619  0.4348E+00  0.7846E+01
   4.629  0.4276E+00  0.7850E+01
   4.639  0.4205E+00  0.7854E+01
   4.649  0.4134E+00  0.7858E+01
   4.659  0.4064E+00  0.7862E+01
   4.669  0.3994E+00  0.7866E+01
   4.679  0.3925E+00  0.7870E+01
   4.689  0.3856E+00  0.7874E+01
   4.699  0.3788E+00  0.7878E+01
   4.709  0.3720E+00  0.7882E+01
   4.719  0.3652E+00  0.7885E+01
   4.729  0.3585E+00  0.7889E+01
   4.739  0.3518E+00  0.7892E+01
   4.749  0.3451E+00  0.7896E+01
   4.759  0.3385E+00  0.7899E+01
   4.769  0.3319E+00  0.7903E+01
   4.779  0.3253E+00  0.7906E+01
   4.789  0.3187E+00  0.7909E+01
   4.799  0.3122E+00  0.7912E+01
   4.809  0.3056E+00  0.7915E+01
   4.819  0.2991E+00  0.7918E+01
   4.829  0.2927E+00  0.7921E+01
   4.839  0.2862E+00  0.7924E+01
   4.849  0.2798E+00  0.7927E+01
   4.859  0.2734E+00  0.7930E+01
   4.869  0.2670E+00  0.7932E+01
   4.879  0.2606E+00  0.7935E+01
   4.889  0.2542E+00  0.7937E+01
   4.899  0.2479E+00  0.7940E+01
   4.909  0.2416E+00  0.7942E+01
   4.919  0.2354E+00  0.7945E+01
   4.929  0.2291E+00  0.7947E+01
   4.939  0.2229E+00  0.7949E+01
   4.949  0.2168E+00  0.7951E+01
   4.959  0.2107E+00  0.7953E+01
   4.969  0.2046E+00  0.7955E+01
   4.979  0.1985E+00  0.7957E+01
   4.989  0.1926E+00  0.7959E+01
   4.999  0.1866E+00  0.7961E+01
   5.009  0.1807E+00  0.7963E+01
   5.019  0.1749E+00  0.7965E+01
   5.029  0.1692E+00  0.7966E+01
   5.039  0.1635E+00  0.7968E+01
   5.049  0.1579E+00  0.7970E+01
   5.059  0.1523E+00  0.7971E+01
   5.069  0.1468E+00  0.7973E+01
   5.079  0.1415E+00  0.7974E+01
   5.089  0.1361E+00  0.7975E+01
   5.099  0.1309E+00  0.7977E+01
   5.109  0.1258E+00  0.7978E+01
   5.119  0.1208E+00  0.7979E+01
   5.129  0.1158E+00  0.7980E+01
   5.139  0.1110E+00  0.7982E+01
   5.149  0.1063E+00  0.7983E+01
   5.159  0.1017E+00  0.7984E+01
   5.169  0.9714E-01  0.7985E+01
   5.179  0.9273E-01  0.7985E+01
   5.189  0.8844E-01  0.7986E+01
   5.199  0.8427E-01  0.7987E+01
   5.209  0.8021E-01  0.7988E+01
   5.219  0.7627E-01  0.7989E+01
   5.229  0.7245E-01  0.7989E+01
   5.239  0.6874E-01  0.7990E+01
   5.249  0.6516E-01  0.7991E+01
   5.259  0.6170E-01  0.7991E+01
   5.269  0.5836E-01  0.7992E+01
   5.279  0.5514E-01  0.7993E+01
   5.289  0.5204E-01  0.7993E+01
   5.299  0.4906E-01  0.7994E+01
   5.309  0.4620E-01  0.7994E+01
   5.319  0.4345E-01  0.7994E+01
   5.329  0.4082E-01  0.7995E+01
   5.339  0.3831E-01  0.7995E+01
   5.349  0.3591E-01  0.7996E+01
   5.359  0.3362E-01  0.7996E+01
   5.369  0.3144E-01  0.7996E+01
   5.379  0.2936E-01  0.7997E+01
   5.389  0.2739E-01  0.7997E+01
   5.399  0.2552E-01  0.7997E+01
   5.409  0.2375E-01  0.7997E+01
   5.419  0.2207E-01  0.7998E+01
   5.429  0.2049E-01  0.7998E+01
   5.439  0.1900E-01  0.7998E+01
   5.449  0.1759E-01  0.7998E+01
   5.459  0.1627E-01  0.7998E+01
   5.469  0.1502E-01  0.7998E+01
   5.479  0.1386E-01  0.7999E+01
   5.489  0.1276E-01  0.7999E+01
   5.499  0.1174E-01  0.7999E+01
   5.509  0.1079E-01  0.7999E+01
   5.519  0.9900E-02  0.7999E+01
   5.529  0.9072E-02  0.7999E+01
   5.539  0.8302E-02  0.7999E+01
   5.549  0.7588E-02  0.7999E+01
   5.559  0.6926E-02  0.7999E+01
   5.569  0.6313E-02  0.7999E+01
   5.579  0.5747E-02  0.7999E+01
   5.589  0.5225E-02  0.8000E+01
   5.599  0.4745E-02  0.8000E+01
   5.609  0.4303E-02  0.8000E+01
   5.619  0.3897E-02  0.8000E+01
   5.629  0.3526E-02  0.8000E+01
   5.639  0.3186E-02  0.8000E+01
   5.649  0.2876E-02  0.8000E+01
   5.659  0.2594E-02  0.8000E+01
   5.669  0.2337E-02  0.8000E+01
   5.679  0.2105E-02  0.8000E+01
   5.689  0.1895E-02  0.8000E+01
   5.699  0.1706E-02  0.8000E+01
   5.709  0.1536E-02  0.8000E+01
   5.719  0.1384E-02  0.8000E+01
   5.729  0.1249E-02  0.8000E+01
   5.739  0.1130E-02  0.8000E+01
   5.749  0.1025E-02  0.8000E+01
   5.759  0.9343E-03  0.8000E+01
   5.769  0.8564E-03  0.8000E+01
   5.779  0.7906E-03  0.8000E+01
   5.789  0.7365E-03  0.8000E+01
   5.799  0.6936E-03  0.8000E+01
   5.809  0.6614E-03  0.8000E+01
   5.819  0.6396E-03  0.8000E+01
   5.829  0.6281E-03  0.8000E+01
   5.839  0.6268E-03  0.8000E+01
   5.849  0.6357E-03  0.8000E+01
   5.859  0.6549E-03  0.8000E+01
   5.869  0.6847E-03  0.8000E+01
   5.879  0.7253E-03  0.8000E+01
   5.889  0.7772E-03  0.8000E+01
   5.899  0.8409E-03  0.8000E+01
   5.909  0.9170E-03  0.8000E+01
   5.919  0.1006E-02  0.8000E+01
   5.929  0.1110E-02  0.8000E+01
   5.939  0.1229E-02  0.8000E+01
   5.949  0.1363E-02  0.8000E+01
   5.959  0.1515E-02  0.8000E+01
   5.969  0.1686E-02  0.8000E+01
   5.979  0.1878E-02  0.8000E+01
   5.989  0.2091E-02  0.8000E+01
   5.999  0.2327E-02  0.8000E+01
   6.009  0.2589E-02  0.8000E+01
   6.019  0.2879E-02  0.8000E+01
   6.029  0.3198E-02  0.8000E+01
   6.039  0.3549E-02  0.8000E+01
   6.049  0.3934E-02  0.8000E+01
   6.059  0.4356E-02  0.8000E+01
   6.069  0.4817E-02  0.8000E+01
   6.079  0.5321E-02  0.8001E+01
   6.089  0.5870E-02  0.8001E+01
   6.099  0.6468E-02  0.8001E+01
   6.109  0.7117E-02  0.8001E+01
   6.119  0.7822E-02  0.8001E+01
   6.129  0.8585E-02  0.8001E+01
   6.139  0.9410E-02  0.8001E+01
   6.149  0.1030E-01  0.8001E+01
   6.159  0.1126E-01  0.8001E+01
   6.169  0.1230E-01  0.8001E+01
   6.179  0.1341E-01  0.8001E+01
   6.189  0.1460E-01  0.8002E+01
   6.199  0.1589E-01  0.8002E+01
   6.209  0.1726E-01  0.8002E+01
   6.219  0.1872E-01  0.8002E+01
   6.229  0.2029E-01  0.8002E+01
   6.239  0.2196E-01  0.8003E+01
   6.249  0.2374E-01  0.8003E+01
   6.259  0.2563E-01  0.8003E+01
   6.269  0.2764E-01  0.8003E+01
   6.279  0.2977E-01  0.8004E+01
   6.289  0.3202E-01  0.8004E+01
   6.299  0.3441E-01  0.8004E+01
   6.309  0.3693E-01  0.8005E+01
   6.319  0.3959E-01  0.8005E+01
   6.329  0.4239E-01  0.8005E+01
   6.339  0.4534E-01  0.8006E+01
   6.349  0.4844E-01  0.8006E+01
   6.359  0.5169E-01  0.8007E+01
   6.369  0.5510E-01  0.8007E+01
   6.379  0.5867E-01  0.8008E+01
   6.389  0.6240E-01  0.8009E+01
   6.399  0.6630E-01  0.8009E+01
   6.409  0.7037E-01  0.8010E+01
   6.419  0.7461E-01  0.8011E+01
   6.429  0.7902E-01  0.8012E+01
   6.439  0.8360E-01  0.8012E+01
   6.449  0.8836E-01  0.8013E+01
   6.459  0.9330E-01  0.8014E+01
   6.469  0.9841E-01  0.8015E+01
   6.479  0.1037E+00  0.8016E+01
   6.489  0.1092E+00  0.8017E+01
   6.499  0.1148E+00  0.8018E+01
   6.509  0.1206E+00  0.8020E+01
   6.519  0.1266E+00  0.8021E+01
   6.529  0.1328E+00  0.8022E+01
   6.539  0.1391E+00  0.8024E+01
   6.549  0.1456E+00  0.8025E+01
   6.559  0.1522E+00  0.8027E+01
   6.569  0.1591E+00  0.8028E+01
   6.579  0.1660E+00  0.8030E+01
   6.589  0.1732E+00  0.8032E+01
   6.599  0.1805E+00  0.8033E+01
   6.609  0.1879E+00  0.8035E+01
   6.619  0.1955E+00  0.8037E+01
   6.629  0.2032E+00  0.8039E+01
   6.639  0.2110E+00  0.8041E+01
   6.649  0.2190E+00  0.8044E+01
   6.659  0.2271E+00  0.8046E+01
   6.669  0.2353E+00  0.8048E+01
   6.679  0.2436E+00  0.8051E+01
   6.689  0.2520E+00  0.8053E+01
   6.699  0.2605E+00  0.8056E+01
   6.709  0.2691E+00  0.8058E+01
   6.719  0.2778E+00  0.8061E+01
   6.729  0.2865E+00  0.8064E+01
   6.739  0.2953E+00  0.8067E+01
   6.749  0.3042E+00  0.8070E+01
   6.759  0.3132E+00  0.8073E+01
   6.769  0.3222E+00  0.8076E+01
   6.779  0.3313E+00  0.8080E+01
   6.789  0.3404E+00  0.8083E+01
   6.799  0.3495E+00  0.8087E+01
   6.809  0.3587E+00  0.8090E+01
   6.819  0.3680E+00  0.8094E+01
   6.829  0.3772E+00  0.8098E+01
   6.839  0.3865E+00  0.8102E+01
   6.849  0.3958E+00  0.8106E+01
   6.859  0.4051E+00  0.8110E+01
   6.869  0.4144E+00  0.8114E+01
   6.879  0.4238E+00  0.8118E+01
   6.889  0.4331E+00  0.8122E+01
   6.899  0.4425E+00  0.8127E+01
   6.909  0.4519E+00  0.8131E+01
   6.919  0.4613E+00  0.8136E+01
   6.929  0.4707E+00  0.8141E+01
   6.939  0.4802E+00  0.8145E+01
   6.949  0.4896E+00  0.8150E+01
   6.959  0.4991E+00  0.8155E+01
   6.969  0.5086E+00  0.8160E+01
   6.979  0.5181E+00  0.8166E+01
   6.989  0.5276E+00  0.8171E+01
   6.999  0.5371E+00  0.8176E+01
   7.009  0.5467E+00  0.8182E+01
   7.019  0.5563E+00  0.8187E+01
   7.029  0.5660E+00  0.8193E+01
   7.039  0.5756E+00  0.8199E+01
   7.049  0.5854E+00  0.8204E+01
   7.059  0.5951E+00  0.8210E+01
   7.069  0.6049E+00  0.8216E+01
   7.079  0.6148E+00  0.8223E+01
   7.089  0.6247E+00  0.8229E+01
   7.099  0.6347E+00  0.8235E+01
   7.109  0.6448E+00  0.8242E+01
   7.119  0.6549E+00  0.8248E+01
   7.129  0.6651E+00  0.8255E+01
   7.139  0.6753E+00  0.8262E+01
   7.149  0.6856E+00  0.8268E+01
   7.159  0.6960E+00  0.8275E+01
   7.169  0.7065E+00  0.8282E+01
   7.179  0.7171E+00  0.8290E+01
   7.189  0.7278E+00  0.8297E+01
   7.199  0.7385E+00  0.8304E+01
   7.209  0.7493E+00  0.8312E+01
   7.219  0.7603E+00  0.8319E+01
   7.229  0.7713E+00  0.8327E+01
   7.239  0.7824E+00  0.8335E+01
   7.249  0.7936E+00  0.8343E+01
   7.259  0.8049E+00  0.8351E+01
   7.269  0.8162E+00  0.8359E+01
   7.279  0.8277E+00  0.8367E+01
   7.289  0.8393E+00  0.8376E+01
   7.299  0.8509E+00  0.8384E+01
   7.309  0.8626E+00  0.8393E+01
   7.319  0.8745E+00  0.8402E+01
   7.329  0.8864E+00  0.8411E+01
   7.339  0.8983E+00  0.8419E+01
   7.349  0.9104E+00  0.8429E+01
   7.359  0.9225E+00  0.8438E+01
   7.369  0.9347E+00  0.8447E+01
   7.379  0.9470E+00  0.8457E+01
   7.389  0.9593E+00  0.8466E+01
   7.399  0.9717E+00  0.8476E+01
   7.409  0.9841E+00  0.8486E+01
   7.419  0.9966E+00  0.8496E+01
   7.429  0.1009E+01  0.8506E+01
   7.439  0.1022E+01  0.8516E+01
   7.449  0.1034E+01  0.8526E+01
   7.459  0.1047E+01  0.8537E+01
   7.469  0.1059E+01  0.8547E+01
   7.479  0.1072E+01  0.8558E+01
   7.489  0.1085E+01  0.8569E+01
   7.499  0.1097E+01  0.8580E+01
   7.509  0.1110E+01  0.8591E+01
   7.519  0.1122E+01  0.8602E+01
   7.529  0.1134E+01  0.8614E+01
   7.539  0.1147E+01  0.8625E+01
   7.549  0.1159E+01  0.8637E+01
   7.559  0.1171E+01  0.8648E+01
   7.569  0.1183E+01  0.8660E+01
   7.579  0.1195E+01  0.8672E+01
   7.589  0.1207E+01  0.8684E+01
   7.599  0.1218E+01  0.8696E+01
   7.609  0.1230E+01  0.8709E+01
   7.619  0.1241E+01  0.8721E+01
   7.629  0.1252E+01  0.8734E+01
   7.639  0.1263E+01  0.8746E+01
   7.649  0.1274E+01  0.8759E+01
   7.659  0.1284E+01  0.8772E+01
   7.669  0.1294E+01  0.8785E+01
   7.679  0.1304E+01  0.8798E+01
   7.689  0.1313E+01  0.8811E+01
   7.699  0.1323E+01  0.8824E+01
   7.709  0.1332E+01  0.8838E+01
   7.719  0.1340E+01  0.8851E+01
   7.729  0.1348E+01  0.8864E+01
   7.739  0.1356E+01  0.8878E+01
   7.749  0.1364E+01  0.8892E+01
   7.759  0.1371E+01  0.8905E+01
   7.769  0.1378E+01  0.8919E+01
   7.779  0.1384E+01  0.8933E+01
   7.789  0.1390E+01  0.8947E+01
   7.799  0.1395E+01  0.8961E+01
   7.809  0.1400E+01  0.8975E+01
   7.819  0.1405E+01  0.8989E+01
   7.829  0.1409E+01  0.9003E+01
   7.839  0.1413E+01  0.9017E+01
   7.849  0.1416E+01  0.9031E+01
   7.859  0.1419E+01  0.9045E+01
   7.869  0.1421E+01  0.9060E+01
   7.879  0.1423E+01  0.9074E+01
   7.889  0.1425E+01  0.9088E+01
   7.899  0.1426E+01  0.9102E+01
   7.909  0.1427E+01  0.9117E+01
   7.919  0.1427E+01  0.9131E+01
   7.929  0.1427E+01  0.9145E+01
   7.939  0.1426E+01  0.9159E+01
   7.949  0.1425E+01  0.9174E+01
   7.959  0.1424E+01  0.9188E+01
   7.969  0.1422E+01  0.9202E+01
   7.979  0.1420E+01  0.9216E+01
   7.989  0.1418E+01  0.9231E+01
   7.999  0.1415E+01  0.9245E+01
   8.009  0.1412E+01  0.9259E+01
   8.019  0.1408E+01  0.9273E+01
   8.029  0.1404E+01  0.9287E+01
   8.039  0.1400E+01  0.9301E+01
   8.049  0.1396E+01  0.9315E+01
   8.059  0.1391E+01  0.9329E+01
   8.069  0.1386E+01  0.9343E+01
   8.079  0.1381E+01  0.9356E+01
   8.089  0.1376E+01  0.9370E+01
   8.099  0.1370E+01  0.9384E+01
   8.109  0.1364E+01  0.9398E+01
   8.119  0.1358E+01  0.9411E+01
   8.129  0.1351E+01  0.9425E+01
   8.139  0.1345E+01  0.9438E+01
   8.149  0.1338E+01  0.9451E+01
   8.159  0.1331E+01  0.9465E+01
   8.169  0.1324E+01  0.9478E+01
   8.179  0.1317E+01  0.9491E+01
   8.189  0.1309E+01  0.9504E+01
   8.199  0.1301E+01  0.9517E+01
   8.209  0.1294E+01  0.9530E+01
   8.219  0.1286E+01  0.9543E+01
   8.229  0.1277E+01  0.9556E+01
   8.239  0.1269E+01  0.9569E+01
   8.249  0.1261E+01  0.9581E+01
   8.259  0.1252E+01  0.9594E+01
   8.269  0.1244E+01  0.9606E+01
   8.279  0.1235E+01  0.9618E+01
   8.289  0.1226E+01  0.9631E+01
   8.299  0.1217E+01  0.9643E+01
   8.309  0.1208E+01  0.9655E+01
   8.319  0.1199E+01  0.9667E+01
   8.329  0.1189E+01  0.9679E+01
   8.339  0.1180E+01  0.9691E+01
   8.349  0.1171E+01  0.9702E+01
   8.359  0.1161E+01  0.9714E+01
   8.369  0.1152E+01  0.9726E+01
   8.379  0.1142E+01  0.9737E+01
   8.389  0.1133E+01  0.9748E+01
   8.399  0.1123E+01  0.9759E+01
   8.409  0.1114E+01  0.9771E+01
   8.419  0.1105E+01  0.9782E+01
   8.429  0.1095E+01  0.9793E+01
   8.439  0.1086E+01  0.9803E+01
   8.449  0.1077E+01  0.9814E+01
   8.459  0.1067E+01  0.9825E+01
   8.469  0.1058E+01  0.9836E+01
   8.479  0.1049E+01  0.9846E+01
   8.489  0.1041E+01  0.9856E+01
   8.499  0.1032E+01  0.9867E+01
   8.509  0.1023E+01  0.9877E+01
   8.519  0.1015E+01  0.9887E+01
   8.529  0.1007E+01  0.9897E+01
   8.539  0.9989E+00  0.9907E+01
   8.549  0.9912E+00  0.9917E+01
   8.559  0.9836E+00  0.9927E+01
   8.569  0.9763E+00  0.9937E+01
   8.579  0.9693E+00  0.9946E+01
   8.589  0.9625E+00  0.9956E+01
   8.599  0.9559E+00  0.9966E+01
   8.609  0.9496E+00  0.9975E+01
   8.619  0.9436E+00  0.9985E+01
   8.629  0.9379E+00  0.9994E+01
   8.639  0.9325E+00  0.1000E+02
   8.649  0.9273E+00  0.1001E+02
   8.659  0.9225E+00  0.1002E+02
   8.669  0.9179E+00  0.1003E+02
   8.679  0.9137E+00  0.1004E+02
   8.689  0.9097E+00  0.1005E+02
   8.699  0.9061E+00  0.1006E+02
   8.709  0.9027E+00  0.1007E+02
   8.719  0.8997E+00  0.1008E+02
   8.729  0.8969E+00  0.1009E+02
   8.739  0.8945E+00  0.1009E+02
   8.749  0.8923E+00  0.1010E+02
   8.759  0.8904E+00  0.1011E+02
   8.769  0.8888E+00  0.1012E+02
   8.779  0.8875E+00  0.1013E+02
   8.789  0.8865E+00  0.1014E+02
   8.799  0.8857E+00  0.1015E+02
   8.809  0.8853E+00  0.1016E+02
   8.819  0.8851E+00  0.1017E+02
   8.829  0.8851E+00  0.1017E+02
   8.839  0.8855E+00  0.1018E+02
   8.849  0.8861E+00  0.1019E+02
   8.859  0.8870E+00  0.1020E+02
   8.869  0.8881E+00  0.1021E+02
   8.879  0.8895E+00  0.1022E+02
   8.889  0.8912E+00  0.1023E+02
   8.899  0.8931E+00  0.1024E+02
   8.909  0.8954E+00  0.1025E+02
   8.919  0.8978E+00  0.1025E+02
   8.929  0.9006E+00  0.1026E+02
   8.939  0.9036E+00  0.1027E+02
   8.949  0.9069E+00  0.1028E+02
   8.959  0.9104E+00  0.1029E+02
   8.969  0.9143E+00  0.1030E+02
   8.979  0.9184E+00  0.1031E+02
   8.989  0.9228E+00  0.1032E+02
   8.999  0.9275E+00  0.1033E+02
   9.009  0.9325E+00  0.1034E+02
   9.019  0.9378E+00  0.1035E+02
   9.029  0.9435E+00  0.1036E+02
   9.039  0.9494E+00  0.1036E+02
   9.049  0.9557E+00  0.1037E+02
   9.059  0.9623E+00  0.1038E+02
   9.069  0.9692E+00  0.1039E+02
   9.079  0.9764E+00  0.1040E+02
   9.089  0.9840E+00  0.1041E+02
   9.099  0.9919E+00  0.1042E+02
   9.109  0.1000E+01  0.1043E+02
   9.119  0.1009E+01  0.1044E+02
   9.129  0.1018E+01  0.1045E+02
   9.139  0.1027E+01  0.1046E+02
   9.149  0.1037E+01  0.1047E+02
   9.159  0.1047E+01  0.1048E+02
   9.169  0.1057E+01  0.1050E+02
   9.179  0.1068E+01  0.1051E+02
   9.189  0.1079E+01  0.1052E+02
   9.199  0.1090E+01  0.1053E+02
   9.209  0.1102E+01  0.1054E+02
   9.219  0.1114E+01  0.1055E+02
   9.229  0.1126E+01  0.1056E+02
   9.239  0.1138E+01  0.1057E+02
   9.249  0.1151E+01  0.1058E+02
   9.259  0.1164E+01  0.1060E+02
   9.269  0.1178E+01  0.1061E+02
   9.279  0.1191E+01  0.1062E+02
   9.289  0.1205E+01  0.1063E+02
   9.299  0.1218E+01  0.1064E+02
   9.309  0.1232E+01  0.1066E+02
   9.319  0.1246E+01  0.1067E+02
   9.329  0.1261E+01  0.1068E+02
   9.339  0.1275E+01  0.1069E+02
   9.349  0.1289E+01  0.1071E+02
   9.359  0.1303E+01  0.1072E+02
   9.369  0.1317E+01  0.1073E+02
   9.379  0.1331E+01  0.1075E+02
   9.389  0.1345E+01  0.1076E+02
   9.399  0.1359E+01  0.1077E+02
   9.409  0.1372E+01  0.1079E+02
   9.419  0.1385E+01  0.1080E+02
   9.429  0.1398E+01  0.1081E+02
   9.439  0.1411E+01  0.1083E+02
   9.449  0.1423E+01  0.1084E+02
   9.459  0.1435E+01  0.1086E+02
   9.469  0.1447E+01  0.1087E+02
   9.479  0.1458E+01  0.1089E+02
   9.489  0.1469E+01  0.1090E+02
   9.499  0.1479E+01  0.1092E+02
   9.509  0.1488E+01  0.1093E+02
   9.519  0.1497E+01  0.1095E+02
   9.529  0.1506E+01  0.1096E+02
   9.539  0.1513E+01  0.1098E+02
   9.549  0.1521E+01  0.1099E+02
   9.559  0.1527E+01  0.1101E+02
   9.569  0.1533E+01  0.1102E+02
   9.579  0.1538E+01  0.1104E+02
   9.589  0.1543E+01  0.1105E+02
   9.599  0.1547E+01  0.1107E+02
   9.609  0.1550E+01  0.1108E+02
   9.619  0.1552E+01  0.1110E+02
   9.629  0.1554E+01  0.1111E+02
   9.639  0.1555E+01  0.1113E+02
   9.649  0.1556E+01  0.1115E+02
   9.659  0.1556E+01  0.1116E+02
   9.669  0.1555E+01  0.1118E+02
   9.679  0.1554E+01  0.1119E+02
   9.689  0.1552E+01  0.1121E+02
   9.699  0.1550E+01  0.1122E+02
   9.709  0.1547E+01  0.1124E+02
   9.719  0.1544E+01  0.1125E+02
   9.729  0.1540E+01  0.1127E+02
   9.739  0.1536E+01  0.1128E+02
   9.749  0.1532E+01  0.1130E+02
   9.759  0.1527E+01  0.1132E+02
   9.769  0.1522E+01  0.1133E+02
   9.779  0.1516E+01  0.1135E+02
   9.789  0.1510E+01  0.1136E+02
   9.799  0.1504E+01  0.1138E+02
   9.809  0.1498E+01  0.1139E+02
   9.819  0.1492E+01  0.1141E+02
   9.829  0.1486E+01  0.1142E+02
   9.839  0.1479E+01  0.1144E+02
   9.849  0.1473E+01  0.1145E+02
   9.859  0.1466E+01  0.1146E+02
   9.869  0.1460E+01  0.1148E+02
   9.879  0.1453E+01  0.1149E+02
   9.889  0.1447E+01  0.1151E+02
   9.899  0.1441E+01  0.1152E+02
   9.909  0.1435E+01  0.1154E+02
   9.919  0.1428E+01  0.1155E+02
   9.929  0.1422E+01  0.1157E+02
   9.939  0.1417E+01  0.1158E+02
   9.949  0.1411E+01  0.1159E+02
   9.959  0.1405E+01  0.1161E+02
   9.969  0.1400E+01  0.1162E+02
   9.979  0.1395E+01  0.1164E+02
   9.989  0.1389E+01  0.1165E+02
   9.999  0.1384E+01  0.1166E+02
  10.009  0.1380E+01  0.1168E+02
  10.019  0.1375E+01  0.1169E+02
  10.029  0.1370E+01  0.1171E+02
  10.039  0.1366E+01  0.1172E+02
  10.049  0.1362E+01  0.1173E+02
  10.059  0.1358E+01  0.1175E+02
  10.069  0.1354E+01  0.1176E+02
  10.079  0.1350E+01  0.1177E+02
  10.089  0.1346E+01  0.1179E+02
  10.099  0.1342E+01  0.1180E+02
  10.109  0.1338E+01  0.1181E+02
  10.119  0.1335E+01  0.1183E+02
  10.129  0.1331E+01  0.1184E+02
  10.139  0.1327E+01  0.1185E+02
  10.149  0.1324E+01  0.1187E+02
  10.159  0.1320E+01  0.1188E+02
  10.169  0.1317E+01  0.1189E+02
  10.179  0.1313E+01  0.1191E+02
  10.189  0.1310E+01  0.1192E+02
  10.199  0.1306E+01  0.1193E+02
  10.209  0.1303E+01  0.1195E+02
  10.219  0.1299E+01  0.1196E+02
  10.229  0.1296E+01  0.1197E+02
  10.239  0.1293E+01  0.1198E+02
  10.249  0.1289E+01  0.1200E+02
  10.259  0.1286E+01  0.1201E+02
  10.269  0.1283E+01  0.1202E+02
  10.279  0.1279E+01  0.1204E+02
  10.289  0.1276E+01  0.1205E+02
  10.299  0.1273E+01  0.1206E+02
  10.309  0.1270E+01  0.1207E+02
  10.319  0.1268E+01  0.1209E+02
  10.329  0.1265E+01  0.1210E+02
  10.339  0.1262E+01  0.1211E+02
  10.349  0.1260E+01  0.1212E+02
  10.359  0.1258E+01  0.1214E+02
  10.369  0.1256E+01  0.1215E+02
  10.379  0.1254E+01  0.1216E+02
  10.389  0.1252E+01  0.1217E+02
  10.399  0.1251E+01  0.1219E+02
  10.409  0.1250E+01  0.1220E+02
  10.419  0.1249E+01  0.1221E+02
  10.429  0.1248E+01  0.1222E+02
  10.439  0.1248E+01  0.1224E+02
  10.449  0.1248E+01  0.1225E+02
  10.459  0.1248E+01  0.1226E+02
  10.469  0.1249E+01  0.1227E+02
  10.479  0.1250E+01  0.1229E+02
  10.489  0.1252E+01  0.1230E+02
  10.499  0.1253E+01  0.1231E+02
  10.509  0.1255E+01  0.1232E+02
  10.519  0.1258E+01  0.1234E+02
  10.529  0.1260E+01  0.1235E+02
  10.539  0.1264E+01  0.1236E+02
  10.549  0.1267E+01  0.1237E+02
  10.559  0.1271E+01  0.1239E+02
  10.569  0.1275E+01  0.1240E+02
  10.579  0.1279E+01  0.1241E+02
  10.589  0.1284E+01  0.1243E+02
  10.599  0.1289E+01  0.1244E+02
  10.609  0.1294E+01  0.1245E+02
  10.619  0.1299E+01  0.1246E+02
  10.629  0.1305E+01  0.1248E+02
  10.639  0.1311E+01  0.1249E+02
  10.649  0.1317E+01  0.1250E+02
  10.659  0.1323E+01  0.1252E+02
  10.669  0.1330E+01  0.1253E+02
  10.679  0.1336E+01  0.1254E+02
  10.689  0.1343E+01  0.1256E+02
  10.699  0.1349E+01  0.1257E+02
  10.709  0.1356E+01  0.1258E+02
  10.719  0.1363E+01  0.1260E+02
  10.729  0.1369E+01  0.1261E+02
  10.739  0.1376E+01  0.1263E+02
  10.749  0.1382E+01  0.1264E+02
  10.759  0.1389E+01  0.1265E+02
  10.769  0.1395E+01  0.1267E+02
  10.779  0.1401E+01  0.1268E+02
  10.789  0.1407E+01  0.1270E+02
  10.799  0.1412E+01  0.1271E+02
  10.809  0.1418E+01  0.1272E+02
  10.819  0.1423E+01  0.1274E+02
  10.829  0.1427E+01  0.1275E+02
  10.839  0.1432E+01  0.1277E+02
  10.849  0.1436E+01  0.1278E+02
  10.859  0.1440E+01  0.1280E+02
  10.869  0.1443E+01  0.1281E+02
  10.879  0.1446E+01  0.1282E+02
  10.889  0.1449E+01  0.1284E+02
  10.899  0.1451E+01  0.1285E+02
  10.909  0.1452E+01  0.1287E+02
  10.919  0.1454E+01  0.1288E+02
  10.929  0.1454E+01  0.1290E+02
  10.939  0.1455E+01  0.1291E+02
  10.949  0.1454E+01  0.1293E+02
  10.959  0.1454E+01  0.1294E+02
  10.969  0.1453E+01  0.1295E+02
  10.979  0.1451E+01  0.1297E+02
  10.989  0.1449E+01  0.1298E+02
  10.999  0.1446E+01  0.1300E+02
  11.009  0.1443E+01  0.1301E+02
  11.019  0.1440E+01  0.1303E+02
  11.029  0.1436E+01  0.1304E+02
  11.039  0.1432E+01  0.1306E+02
  11.049  0.1427E+01  0.1307E+02
  11.059  0.1422E+01  0.1308E+02
  11.069  0.1417E+01  0.1310E+02
  11.079  0.1411E+01  0.1311E+02
  11.089  0.1405E+01  0.1313E+02
  11.099  0.1398E+01  0.1314E+02
  11.109  0.1392E+01  0.1315E+02
  11.119  0.1385E+01  0.1317E+02
  11.129  0.1377E+01  0.1318E+02
  11.139  0.1370E+01  0.1320E+02
  11.149  0.1362E+01  0.1321E+02
  11.159  0.1355E+01  0.1322E+02
  11.169  0.1347E+01  0.1324E+02
  11.179  0.1339E+01  0.1325E+02
  11.189  0.1330E+01  0.1326E+02
  11.199  0.1322E+01  0.1328E+02
  11.209  0.1314E+01  0.1329E+02
  11.219  0.1306E+01  0.1330E+02
  11.229  0.1298E+01  0.1332E+02
  11.239  0.1289E+01  0.1333E+02
  11.249  0.1281E+01  0.1334E+02
  11.259  0.1273E+01  0.1335E+02
  11.269  0.1265E+01  0.1337E+02
  11.279  0.1258E+01  0.1338E+02
  11.289  0.1250E+01  0.1339E+02
  11.299  0.1243E+01  0.1340E+02
  11.309  0.1235E+01  0.1342E+02
  11.319  0.1228E+01  0.1343E+02
  11.329  0.1221E+01  0.1344E+02
  11.339  0.1214E+01  0.1345E+02
  11.349  0.1208E+01  0.1347E+02
  11.359  0.1202E+01  0.1348E+02
  11.369  0.1196E+01  0.1349E+02
  11.379  0.1190E+01  0.1350E+02
  11.389  0.1184E+01  0.1351E+02
  11.399  0.1179E+01  0.1352E+02
  11.409  0.1173E+01  0.1354E+02
  11.419  0.1169E+01  0.1355E+02
  11.429  0.1164E+01  0.1356E+02
  11.439  0.1159E+01  0.1357E+02
  11.449  0.1155E+01  0.1358E+02
  11.459  0.1151E+01  0.1359E+02
  11.469  0.1147E+01  0.1361E+02
  11.479  0.1143E+01  0.1362E+02
  11.489  0.1139E+01  0.1363E+02
  11.499  0.1135E+01  0.1364E+02
  11.509  0.1132E+01  0.1365E+02
  11.519  0.1129E+01  0.1366E+02
  11.529  0.1125E+01  0.1367E+02
  11.539  0.1122E+01  0.1369E+02
  11.549  0.1119E+01  0.1370E+02
  11.559  0.1116E+01  0.1371E+02
  11.569  0.1113E+01  0.1372E+02
  11.579  0.1110E+01  0.1373E+02
  11.589  0.1107E+01  0.1374E+02
  11.599  0.1104E+01  0.1375E+02
  11.609  0.1100E+01  0.1376E+02
  11.619  0.1097E+01  0.1377E+02
  11.629  0.1094E+01  0.1378E+02
  11.639  0.1091E+01  0.1380E+02
  11.649  0.1087E+01  0.1381E+02
  11.659  0.1084E+01  0.1382E+02
  11.669  0.1080E+01  0.1383E+02
  11.679  0.1076E+01  0.1384E+02
  11.689  0.1073E+01  0.1385E+02
  11.699  0.1069E+01  0.1386E+02
  11.709  0.1065E+01  0.1387E+02
  11.719  0.1060E+01  0.1388E+02
  11.729  0.1056E+01  0.1389E+02
  11.739  0.1052E+01  0.1390E+02
  11.749  0.1047E+01  0.1391E+02
  11.759  0.1043E+01  0.1392E+02
  11.769  0.1038E+01  0.1393E+02
  11.779  0.1033E+01  0.1394E+02
  11.789  0.1029E+01  0.1395E+02
  11.799  0.1024E+01  0.1396E+02
  11.809  0.1019E+01  0.1397E+02
  11.819  0.1014E+01  0.1398E+02
  11.829  0.1009E+01  0.1400E+02
  11.839  0.1004E+01  0.1401E+02
  11.849  0.9987E+00  0.1402E+02
  11.859  0.9937E+00  0.1403E+02
  11.869  0.9887E+00  0.1403E+02
  11.879  0.9837E+00  0.1404E+02
  11.889  0.9787E+00  0.1405E+02
  11.899  0.9739E+00  0.1406E+02
  11.909  0.9690E+00  0.1407E+02
  11.919  0.9643E+00  0.1408E+02
  11.929  0.9597E+00  0.1409E+02
  11.939  0.9551E+00  0.1410E+02
  11.949  0.9507E+00  0.1411E+02
  11.959  0.9464E+00  0.1412E+02
  11.969  0.9423E+00  0.1413E+02
  11.979  0.9383E+00  0.1414E+02
  11.989  0.9344E+00  0.1415E+02
  11.999  0.9307E+00  0.1416E+02
  12.009  0.9271E+00  0.1417E+02
  12.019  0.9237E+00  0.1418E+02
  12.029  0.9204E+00  0.1419E+02
  12.039  0.9173E+00  0.1420E+02
  12.049  0.9144E+00  0.1421E+02
  12.059  0.9116E+00  0.1421E+02
  12.069  0.9089E+00  0.1422E+02
  12.079  0.9064E+00  0.1423E+02
  12.089  0.9040E+00  0.1424E+02
  12.099  0.9018E+00  0.1425E+02
  12.109  0.8997E+00  0.1426E+02
  12.119  0.8977E+00  0.1427E+02
  12.129  0.8957E+00  0.1428E+02
  12.139  0.8939E+00  0.1429E+02
  12.149  0.8922E+00  0.1430E+02
  12.159  0.8905E+00  0.1430E+02
  12.169  0.8889E+00  0.1431E+02
  12.179  0.8874E+00  0.1432E+02
  12.189  0.8859E+00  0.1433E+02
  12.199  0.8844E+00  0.1434E+02
  12.209  0.8829E+00  0.1435E+02
  12.219  0.8815E+00  0.1436E+02
  12.229  0.8800E+00  0.1437E+02
  12.239  0.8786E+00  0.1437E+02
  12.249  0.8771E+00  0.1438E+02
  12.259  0.8756E+00  0.1439E+02
  12.269  0.8741E+00  0.1440E+02
  12.279  0.8725E+00  0.1441E+02
  12.289  0.8709E+00  0.1442E+02
  12.299  0.8693E+00  0.1443E+02
  12.309  0.8677E+00  0.1444E+02
  12.319  0.8660E+00  0.1444E+02
  12.329  0.8644E+00  0.1445E+02
  12.339  0.8627E+00  0.1446E+02
  12.349  0.8610E+00  0.1447E+02
  12.359  0.8593E+00  0.1448E+02
  12.369  0.8576E+00  0.1449E+02
  12.379  0.8559E+00  0.1450E+02
  12.389  0.8543E+00  0.1450E+02
  12.399  0.8527E+00  0.1451E+02
  12.409  0.8512E+00  0.1452E+02
  12.419  0.8498E+00  0.1453E+02
  12.429  0.8486E+00  0.1454E+02
  12.439  0.8474E+00  0.1455E+02
  12.449  0.8464E+00  0.1456E+02
  12.459  0.8455E+00  0.1456E+02
  12.469  0.8449E+00  0.1457E+02
  12.479  0.8444E+00  0.1458E+02
  12.489  0.8442E+00  0.1459E+02
  12.499  0.8443E+00  0.1460E+02
  12.509  0.8446E+00  0.1461E+02
  12.519  0.8452E+00  0.1461E+02
  12.529  0.8462E+00  0.1462E+02
  12.539  0.8474E+00  0.1463E+02
  12.549  0.8490E+00  0.1464E+02
  12.559  0.8510E+00  0.1465E+02
  12.569  0.8534E+00  0.1466E+02
  12.579  0.8561E+00  0.1467E+02
  12.589  0.8593E+00  0.1467E+02
  12.599  0.8628E+00  0.1468E+02
  12.609  0.8668E+00  0.1469E+02
  12.619  0.8712E+00  0.1470E+02
  12.629  0.8760E+00  0.1471E+02
  12.639  0.8813E+00  0.1472E+02
  12.649  0.8869E+00  0.1473E+02
  12.659  0.8930E+00  0.1474E+02
  12.669  0.8995E+00  0.1474E+02
  12.679  0.9063E+00  0.1475E+02
  12.689  0.9136E+00  0.1476E+02
  12.699  0.9212E+00  0.1477E+02
  12.709  0.9291E+00  0.1478E+02
  12.719  0.9374E+00  0.1479E+02
  12.729  0.9460E+00  0.1480E+02
  12.739  0.9549E+00  0.1481E+02
  12.749  0.9640E+00  0.1482E+02
  12.759  0.9734E+00  0.1483E+02
  12.769  0.9830E+00  0.1484E+02
  12.779  0.9927E+00  0.1485E+02
  12.789  0.1003E+01  0.1486E+02
  12.799  0.1013E+01  0.1487E+02
  12.809  0.1023E+01  0.1488E+02
  12.819  0.1033E+01  0.1489E+02
  12.829  0.1043E+01  0.1490E+02
  12.839  0.1053E+01  0.1491E+02
  12.849  0.1063E+01  0.1492E+02
  12.859  0.1073E+01  0.1493E+02
  12.869  0.1083E+01  0.1494E+02
  12.879  0.1092E+01  0.1495E+02
  12.889  0.1102E+01  0.1496E+02
  12.899  0.1111E+01  0.1498E+02
  12.909  0.1120E+01  0.1499E+02
  12.919  0.1129E+01  0.1500E+02
  12.929  0.1137E+01  0.1501E+02
  12.939  0.1145E+01  0.1502E+02
  12.949  0.1153E+01  0.1503E+02
  12.959  0.1160E+01  0.1504E+02
  12.969  0.1167E+01  0.1506E+02
  12.979  0.1174E+01  0.1507E+02
  12.989  0.1180E+01  0.1508E+02
  12.999  0.1186E+01  0.1509E+02
  13.009  0.1191E+01  0.1510E+02
  13.019  0.1196E+01  0.1512E+02
  13.029  0.1201E+01  0.1513E+02
  13.039  0.1205E+01  0.1514E+02
  13.049  0.1209E+01  0.1515E+02
  13.059  0.1212E+01  0.1516E+02
  13.069  0.1215E+01  0.1518E+02
  13.079  0.1217E+01  0.1519E+02
  13.089  0.1220E+01  0.1520E+02
  13.099  0.1221E+01  0.1521E+02
  13.109  0.1223E+01  0.1522E+02
  13.119  0.1223E+01  0.1524E+02
  13.129  0.1224E+01  0.1525E+02
  13.139  0.1224E+01  0.1526E+02
  13.149  0.1224E+01  0.1527E+02
  13.159  0.1224E+01  0.1529E+02
  13.169  0.1223E+01  0.1530E+02
  13.179  0.1222E+01  0.1531E+02
  13.189  0.1221E+01  0.1532E+02
  13.199  0.1220E+01  0.1533E+02
  13.209  0.1218E+01  0.1535E+02
  13.219  0.1217E+01  0.1536E+02
  13.229  0.1215E+01  0.1537E+02
  13.239  0.1213E+01  0.1538E+02
  13.249  0.1210E+01  0.1540E+02
  13.259  0.1208E+01  0.1541E+02
  13.269  0.1206E+01  0.1542E+02
  13.279  0.1203E+01  0.1543E+02
  13.289  0.1200E+01  0.1544E+02
  13.299  0.1197E+01  0.1546E+02
  13.309  0.1195E+01  0.1547E+02
  13.319  0.1192E+01  0.1548E+02
  13.329  0.1189E+01  0.1549E+02
  13.339  0.1186E+01  0.1550E+02
  13.349  0.1183E+01  0.1552E+02
  13.359  0.1180E+01  0.1553E+02
  13.369  0.1177E+01  0.1554E+02
  13.379  0.1173E+01  0.1555E+02
  13.389  0.1170E+01  0.1556E+02
  13.399  0.1167E+01  0.1557E+02
  13.409  0.1164E+01  0.1559E+02
  13.419  0.1161E+01  0.1560E+02
  13.429  0.1158E+01  0.1561E+02
  13.439  0.1155E+01  0.1562E+02
  13.449  0.1152E+01  0.1563E+02
  13.459  0.1149E+01  0.1564E+02
  13.469  0.1146E+01  0.1565E+02
  13.479  0.1143E+01  0.1567E+02
  13.489  0.1140E+01  0.1568E+02
  13.499  0.1137E+01  0.1569E+02
  13.509  0.1134E+01  0.1570E+02
  13.519  0.1131E+01  0.1571E+02
  13.529  0.1129E+01  0.1572E+02
  13.539  0.1126E+01  0.1573E+02
  13.549  0.1123E+01  0.1575E+02
  13.559  0.1121E+01  0.1576E+02
  13.569  0.1118E+01  0.1577E+02
  13.579  0.1116E+01  0.1578E+02
  13.589  0.1114E+01  0.1579E+02
  13.599  0.1112E+01  0.1580E+02
  13.609  0.1110E+01  0.1581E+02
  13.619  0.1108E+01  0.1582E+02
  13.629  0.1106E+01  0.1583E+02
  13.639  0.1104E+01  0.1585E+02
  13.649  0.1102E+01  0.1586E+02
  13.659  0.1101E+01  0.1587E+02
  13.669  0.1100E+01  0.1588E+02
  13.679  0.1098E+01  0.1589E+02
  13.689  0.1097E+01  0.1590E+02
  13.699  0.1096E+01  0.1591E+02
  13.709  0.1095E+01  0.1592E+02
  13.719  0.1094E+01  0.1593E+02
  13.729  0.1094E+01  0.1594E+02
  13.739  0.1093E+01  0.1595E+02
  13.749  0.1093E+01  0.1597E+02
  13.759  0.1092E+01  0.1598E+02
  13.769  0.1092E+01  0.1599E+02
  13.779  0.1092E+01  0.1600E+02
  13.789  0.1091E+01  0.1601E+02
  13.799  0.1091E+01  0.1602E+02
  13.809  0.1091E+01  0.1603E+02
  13.819  0.1091E+01  0.1604E+02
  13.829  0.1091E+01  0.1605E+02
  13.839  0.1091E+01  0.1606E+02
  13.849  0.1091E+01  0.1608E+02
  13.859  0.1091E+01  0.1609E+02
  13.869  0.1091E+01  0.1610E+02
  13.879  0.1091E+01  0.1611E+02
  13.889  0.1091E+01  0.1612E+02
  13.899  0.1090E+01  0.1613E+02
  13.909  0.1090E+01  0.1614E+02
  13.919  0.1090E+01  0.1615E+02
  13.929  0.1089E+01  0.1616E+02
  13.939  0.1089E+01  0.1617E+02
  13.949  0.1088E+01  0.1618E+02
  13.959  0.1088E+01  0.1619E+02
  13.969  0.1087E+01  0.1621E+02
  13.979  0.1086E+01  0.1622E+02
  13.989  0.1085E+01  0.1623E+02
  13.999  0.1084E+01  0.1624E+02
  14.009  0.1083E+01  0.1625E+02
  14.019  0.1082E+01  0.1626E+02
  14.029  0.1080E+01  0.1627E+02
  14.039  0.1079E+01  0.1628E+02
  14.049  0.1077E+01  0.1629E+02
  14.059  0.1076E+01  0.1630E+02
  14.069  0.1074E+01  0.1631E+02
  14.079  0.1073E+01  0.1632E+02
  14.089  0.1071E+01  0.1634E+02
  14.099  0.1069E+01  0.1635E+02
  14.109  0.1068E+01  0.1636E+02
  14.119  0.1066E+01  0.1637E+02
  14.129  0.1065E+01  0.1638E+02
  14.139  0.1063E+01  0.1639E+02
  14.149  0.1062E+01  0.1640E+02
  14.159  0.1060E+01  0.1641E+02
  14.169  0.1059E+01  0.1642E+02
  14.179  0.1058E+01  0.1643E+02
  14.189  0.1057E+01  0.1644E+02
  14.199  0.1056E+01  0.1645E+02
  14.209  0.1055E+01  0.1646E+02
  14.219  0.1055E+01  0.1647E+02
  14.229  0.1054E+01  0.1648E+02
  14.239  0.1054E+01  0.1649E+02
  14.249  0.1055E+01  0.1650E+02
  14.259  0.1055E+01  0.1652E+02
  14.269  0.1055E+01  0.1653E+02
  14.279  0.1056E+01  0.1654E+02
  14.289  0.1057E+01  0.1655E+02
  14.299  0.1059E+01  0.1656E+02
  14.309  0.1061E+01  0.1657E+02
  14.319  0.1062E+01  0.1658E+02
  14.329  0.1065E+01  0.1659E+02
  14.339  0.1067E+01  0.1660E+02
  14.349  0.1070E+01  0.1661E+02
  14.359  0.1073E+01  0.1662E+02
  14.369  0.1076E+01  0.1663E+02
  14.379  0.1080E+01  0.1664E+02
  14.389  0.1084E+01  0.1665E+02
  14.399  0.1088E+01  0.1666E+02
  14.409  0.1092E+01  0.1668E+02
  14.419  0.1096E+01  0.1669E+02
  14.429  0.1101E+01  0.1670E+02
  14.439  0.1106E+01  0.1671E+02
  14.449  0.1111E+01  0.1672E+02
  14.459  0.1116E+01  0.1673E+02
  14.469  0.1121E+01  0.1674E+02
  14.479  0.1127E+01  0.1675E+02
  14.489  0.1132E+01  0.1676E+02
  14.499  0.1138E+01  0.1678E+02
  14.509  0.1143E+01  0.1679E+02
  14.519  0.1149E+01  0.1680E+02
  14.529  0.1155E+01  0.1681E+02
  14.539  0.1161E+01  0.1682E+02
  14.549  0.1167E+01  0.1683E+02
  14.559  0.1172E+01  0.1685E+02
  14.569  0.1178E+01  0.1686E+02
  14.579  0.1184E+01  0.1687E+02
  14.589  0.1190E+01  0.1688E+02
  14.599  0.1195E+01  0.1689E+02
  14.609  0.1201E+01  0.1691E+02
  14.619  0.1206E+01  0.1692E+02
  14.629  0.1211E+01  0.1693E+02
  14.639  0.1217E+01  0.1694E+02
  14.649  0.1222E+01  0.1695E+02
  14.659  0.1227E+01  0.1697E+02
  14.669  0.1232E+01  0.1698E+02
  14.679  0.1236E+01  0.1699E+02
  14.689  0.1241E+01  0.1700E+02
  14.699  0.1245E+01  0.1702E+02
  14.709  0.1250E+01  0.1703E+02
  14.719  0.1254E+01  0.1704E+02
  14.729  0.1258E+01  0.1705E+02
  14.739  0.1261E+01  0.1707E+02
  14.749  0.1265E+01  0.1708E+02
  14.759  0.1268E+01  0.1709E+02
  14.769  0.1272E+01  0.1710E+02
  14.779  0.1275E+01  0.1712E+02
  14.789  0.1278E+01  0.1713E+02
  14.799  0.1281E+01  0.1714E+02
  14.809  0.1283E+01  0.1716E+02
  14.819  0.1286E+01  0.1717E+02
  14.829  0.1288E+01  0.1718E+02
  14.839  0.1290E+01  0.1719E+02
  14.849  0.1292E+01  0.1721E+02
  14.859  0.1294E+01  0.1722E+02
  14.869  0.1296E+01  0.1723E+02
  14.879  0.1297E+01  0.1725E+02
  14.889  0.1298E+01  0.1726E+02
  14.899  0.1300E+01  0.1727E+02
  14.909  0.1301E+01  0.1728E+02
  14.919  0.1301E+01  0.1730E+02
  14.929  0.1302E+01  0.1731E+02
  14.939  0.1303E+01  0.1732E+02
  14.949  0.1303E+01  0.1734E+02
  14.959  0.1303E+01  0.1735E+02
  14.969  0.1303E+01  0.1736E+02
  14.979  0.1303E+01  0.1738E+02
  14.989  0.1303E+01  0.1739E+02
  14.999  0.1302E+01  0.1740E+02
  15.009  0.1301E+01  0.1741E+02
  15.019  0.1301E+01  0.1743E+02
  15.029  0.1299E+01  0.1744E+02
  15.039  0.1298E+01  0.1745E+02
  15.049  0.1297E+01  0.1747E+02
  15.059  0.1295E+01  0.1748E+02
  15.069  0.1294E+01  0.1749E+02
  15.079  0.1292E+01  0.1751E+02
  15.089  0.1290E+01  0.1752E+02
  15.099  0.1287E+01  0.1753E+02
  15.109  0.1285E+01  0.1754E+02
  15.119  0.1282E+01  0.1756E+02
  15.129  0.1280E+01  0.1757E+02
  15.139  0.1277E+01  0.1758E+02
  15.149  0.1274E+01  0.1760E+02
  15.159  0.1271E+01  0.1761E+02
  15.169  0.1267E+01  0.1762E+02
  15.179  0.1264E+01  0.1763E+02
  15.189  0.1261E+01  0.1765E+02
  15.199  0.1257E+01  0.1766E+02
  15.209  0.1253E+01  0.1767E+02
  15.219  0.1249E+01  0.1768E+02
  15.229  0.1246E+01  0.1770E+02
  15.239  0.1242E+01  0.1771E+02
  15.249  0.1238E+01  0.1772E+02
  15.259  0.1234E+01  0.1773E+02
  15.269  0.1230E+01  0.1775E+02
  15.279  0.1226E+01  0.1776E+02
  15.289  0.1221E+01  0.1777E+02
  15.299  0.1217E+01  0.1778E+02
  15.309  0.1213E+01  0.1779E+02
  15.319  0.1209E+01  0.1781E+02
  15.329  0.1205E+01  0.1782E+02
  15.339  0.1201E+01  0.1783E+02
  15.349  0.1196E+01  0.1784E+02
  15.359  0.1192E+01  0.1785E+02
  15.369  0.1188E+01  0.1787E+02
  15.379  0.1184E+01  0.1788E+02
  15.389  0.1180E+01  0.1789E+02
  15.399  0.1176E+01  0.1790E+02
  15.409  0.1172E+01  0.1791E+02
  15.419  0.1168E+01  0.1792E+02
  15.429  0.1165E+01  0.1794E+02
  15.439  0.1161E+01  0.1795E+02
  15.449  0.1157E+01  0.1796E+02
  15.459  0.1153E+01  0.1797E+02
  15.469  0.1150E+01  0.1798E+02
  15.479  0.1146E+01  0.1799E+02
  15.489  0.1143E+01  0.1801E+02
  15.499  0.1139E+01  0.1802E+02
  15.509  0.1136E+01  0.1803E+02
  15.519  0.1132E+01  0.1804E+02
  15.529  0.1129E+01  0.1805E+02
  15.539  0.1126E+01  0.1806E+02
  15.549  0.1123E+01  0.1807E+02
  15.559  0.1119E+01  0.1808E+02
  15.569  0.1116E+01  0.1810E+02
  15.579  0.1113E+01  0.1811E+02
  15.589  0.1110E+01  0.1812E+02
  15.599  0.1107E+01  0.1813E+02
  15.609  0.1103E+01  0.1814E+02
  15.619  0.1100E+01  0.1815E+02
  15.629  0.1097E+01  0.1816E+02
  15.639  0.1094E+01  0.1817E+02
  15.649  0.1091E+01  0.1818E+02
  15.659  0.1088E+01  0.1819E+02
  15.669  0.1084E+01  0.1821E+02
  15.679  0.1081E+01  0.1822E+02
  15.689  0.1078E+01  0.1823E+02
  15.699  0.1075E+01  0.1824E+02
  15.709  0.1072E+01  0.1825E+02
  15.719  0.1068E+01  0.1826E+02
  15.729  0.1065E+01  0.1827E+02
  15.739  0.1062E+01  0.1828E+02
  15.749  0.1058E+01  0.1829E+02
  15.759  0.1055E+01  0.1830E+02
  15.769  0.1051E+01  0.1831E+02
  15.779  0.1048E+01  0.1832E+02
  15.789  0.1044E+01  0.1833E+02
  15.799  0.1041E+01  0.1834E+02
  15.809  0.1037E+01  0.1835E+02
  15.819  0.1034E+01  0.1836E+02
  15.829  0.1030E+01  0.1837E+02
  15.839  0.1026E+01  0.1838E+02
  15.849  0.1023E+01  0.1840E+02
  15.859  0.1019E+01  0.1841E+02
  15.869  0.1015E+01  0.1842E+02
  15.879  0.1011E+01  0.1843E+02
  15.889  0.1007E+01  0.1844E+02
  15.899  0.1004E+01  0.1845E+02
  15.909  0.9996E+00  0.1846E+02
  15.919  0.9958E+00  0.1847E+02
  15.929  0.9919E+00  0.1848E+02
  15.939  0.9879E+00  0.1849E+02
  15.949  0.9840E+00  0.1850E+02
  15.959  0.9801E+00  0.1851E+02
  15.969  0.9761E+00  0.1851E+02
  15.979  0.9722E+00  0.1852E+02
  15.989  0.9682E+00  0.1853E+02
  15.999  0.9643E+00  0.1854E+02
  16.009  0.9604E+00  0.1855E+02
  16.019  0.9564E+00  0.1856E+02
  16.029  0.9525E+00  0.1857E+02
  16.039  0.9486E+00  0.1858E+02
  16.049  0.9447E+00  0.1859E+02
  16.059  0.9408E+00  0.1860E+02
  16.069  0.9370E+00  0.1861E+02
  16.079  0.9331E+00  0.1862E+02
  16.089  0.9293E+00  0.1863E+02
  16.099  0.9255E+00  0.1864E+02
  16.109  0.9218E+00  0.1865E+02
  16.119  0.9180E+00  0.1866E+02
  16.129  0.9143E+00  0.1867E+02
  16.139  0.9106E+00  0.1867E+02
  16.149  0.9070E+00  0.1868E+02
  16.159  0.9034E+00  0.1869E+02
  16.169  0.8998E+00  0.1870E+02
  16.179  0.8963E+00  0.1871E+02
  16.189  0.8927E+00  0.1872E+02
  16.199  0.8893E+00  0.1873E+02
  16.209  0.8858E+00  0.1874E+02
  16.219  0.8824E+00  0.1875E+02
  16.229  0.8790E+00  0.1876E+02
  16.239  0.8757E+00  0.1876E+02
  16.249  0.8724E+00  0.1877E+02
  16.259  0.8691E+00  0.1878E+02
  16.269  0.8659E+00  0.1879E+02
  16.279  0.8626E+00  0.1880E+02
  16.289  0.8595E+00  0.1881E+02
  16.299  0.8563E+00  0.1882E+02
  16.309  0.8531E+00  0.1882E+02
  16.319  0.8500E+00  0.1883E+02
  16.329  0.8469E+00  0.1884E+02
  16.339  0.8438E+00  0.1885E+02
  16.349  0.8407E+00  0.1886E+02
  16.359  0.8377E+00  0.1887E+02
  16.369  0.8346E+00  0.1887E+02
  16.379  0.8315E+00  0.1888E+02
  16.389  0.8284E+00  0.1889E+02
  16.399  0.8253E+00  0.1890E+02
  16.409  0.8222E+00  0.1891E+02
  16.419  0.8191E+00  0.1892E+02
  16.429  0.8160E+00  0.1892E+02
  16.439  0.8128E+00  0.1893E+02
  16.449  0.8096E+00  0.1894E+02
  16.459  0.8064E+00  0.1895E+02
  16.469  0.8031E+00  0.1896E+02
  16.479  0.7998E+00  0.1896E+02
  16.489  0.7964E+00  0.1897E+02
  16.499  0.7930E+00  0.1898E+02
  16.509  0.7896E+00  0.1899E+02
  16.519  0.7860E+00  0.1900E+02
  16.529  0.7825E+00  0.1900E+02
  16.539  0.7788E+00  0.1901E+02
  16.549  0.7751E+00  0.1902E+02
  16.559  0.7713E+00  0.1903E+02
  16.569  0.7675E+00  0.1904E+02
  16.579  0.7636E+00  0.1904E+02
  16.589  0.7596E+00  0.1905E+02
  16.599  0.7555E+00  0.1906E+02
  16.609  0.7514E+00  0.1907E+02
  16.619  0.7472E+00  0.1907E+02
  16.629  0.7429E+00  0.1908E+02
  16.639  0.7386E+00  0.1909E+02
  16.649  0.7343E+00  0.1909E+02
  16.659  0.7298E+00  0.1910E+02
  16.669  0.7253E+00  0.1911E+02
  16.679  0.7208E+00  0.1912E+02
  16.689  0.7162E+00  0.1912E+02
  16.699  0.7116E+00  0.1913E+02
  16.709  0.7070E+00  0.1914E+02
  16.719  0.7023E+00  0.1915E+02
  16.729  0.6977E+00  0.1915E+02
  16.739  0.6930E+00  0.1916E+02
  16.749  0.6883E+00  0.1917E+02
  16.759  0.6837E+00  0.1917E+02
  16.769  0.6790E+00  0.1918E+02
  16.779  0.6744E+00  0.1919E+02
  16.789  0.6698E+00  0.1919E+02
  16.799  0.6653E+00  0.1920E+02
  16.809  0.6608E+00  0.1921E+02
  16.819  0.6564E+00  0.1921E+02
  16.829  0.6521E+00  0.1922E+02
  16.839  0.6478E+00  0.1923E+02
  16.849  0.6437E+00  0.1923E+02
  16.859  0.6396E+00  0.1924E+02
  16.869  0.6356E+00  0.1924E+02
  16.879  0.6318E+00  0.1925E+02
  16.889  0.6281E+00  0.1926E+02
  16.899  0.6245E+00  0.1926E+02
  16.909  0.6211E+00  0.1927E+02
  16.919  0.6178E+00  0.1928E+02
  16.929  0.6147E+00  0.1928E+02
  16.939  0.6117E+00  0.1929E+02
  16.949  0.6089E+00  0.1929E+02
  16.959  0.6062E+00  0.1930E+02
  16.969  0.6037E+00  0.1931E+02
  16.979  0.6014E+00  0.1931E+02
  16.989  0.5992E+00  0.1932E+02
  16.999  0.5972E+00  0.1932E+02
  17.009  0.5954E+00  0.1933E+02
  17.019  0.5937E+00  0.1934E+02
  17.029  0.5923E+00  0.1934E+02
  17.039  0.5909E+00  0.1935E+02
  17.049  0.5898E+00  0.1935E+02
  17.059  0.5888E+00  0.1936E+02
  17.069  0.5880E+00  0.1937E+02
  17.079  0.5873E+00  0.1937E+02
  17.089  0.5868E+00  0.1938E+02
  17.099  0.5864E+00  0.1938E+02
  17.109  0.5862E+00  0.1939E+02
  17.119  0.5861E+00  0.1940E+02
  17.129  0.5861E+00  0.1940E+02
  17.139  0.5862E+00  0.1941E+02
  17.149  0.5865E+00  0.1941E+02
  17.159  0.5869E+00  0.1942E+02
  17.169  0.5873E+00  0.1942E+02
  17.179  0.5879E+00  0.1943E+02
  17.189  0.5886E+00  0.1944E+02
  17.199  0.5893E+00  0.1944E+02
  17.209  0.5902E+00  0.1945E+02
  17.219  0.5910E+00  0.1945E+02
  17.229  0.5920E+00  0.1946E+02
  17.239  0.5930E+00  0.1947E+02
  17.249  0.5941E+00  0.1947E+02
  17.259  0.5952E+00  0.1948E+02
  17.269  0.5964E+00  0.1948E+02
  17.279  0.5976E+00  0.1949E+02
  17.289  0.5988E+00  0.1950E+02
  17.299  0.6000E+00  0.1950E+02
  17.309  0.6012E+00  0.1951E+02
  17.319  0.6025E+00  0.1951E+02
  17.329  0.6037E+00  0.1952E+02
  17.339  0.6050E+00  0.1953E+02
  17.349  0.6062E+00  0.1953E+02
  17.359  0.6074E+00  0.1954E+02
  17.369  0.6086E+00  0.1954E+02
  17.379  0.6097E+00  0.1955E+02
  17.389  0.6108E+00  0.1956E+02
  17.399  0.6119E+00  0.1956E+02
  17.409  0.6129E+00  0.1957E+02
  17.419  0.6138E+00  0.1957E+02
  17.429  0.6146E+00  0.1958E+02
  17.439  0.6154E+00  0.1959E+02
  17.449  0.6161E+00  0.1959E+02
  17.459  0.6166E+00  0.1960E+02
  17.469  0.6171E+00  0.1961E+02
  17.479  0.6174E+00  0.1961E+02
  17.489  0.6176E+00  0.1962E+02
  17.499  0.6176E+00  0.1962E+02
  17.509  0.6175E+00  0.1963E+02
  17.519  0.6173E+00  0.1964E+02
  17.529  0.6168E+00  0.1964E+02
  17.539  0.6162E+00  0.1965E+02
  17.549  0.6153E+00  0.1965E+02
  17.559  0.6143E+00  0.1966E+02
  17.569  0.6131E+00  0.1967E+02
  17.579  0.6116E+00  0.1967E+02
  17.589  0.6099E+00  0.1968E+02
  17.599  0.6079E+00  0.1969E+02
  17.609  0.6057E+00  0.1969E+02
  17.619  0.6032E+00  0.1970E+02
  17.629  0.6005E+00  0.1970E+02
  17.639  0.5975E+00  0.1971E+02
  17.649  0.5942E+00  0.1972E+02
  17.659  0.5906E+00  0.1972E+02
  17.669  0.5868E+00  0.1973E+02
  17.679  0.5826E+00  0.1973E+02
  17.689  0.5782E+00  0.1974E+02
  17.699  0.5735E+00  0.1974E+02
  17.709  0.5685E+00  0.1975E+02
  17.719  0.5632E+00  0.1976E+02
  17.729  0.5577E+00  0.1976E+02
  17.739  0.5518E+00  0.1977E+02
  17.749  0.5457E+00  0.1977E+02
  17.759  0.5393E+00  0.1978E+02
  17.769  0.5327E+00  0.1978E+02
  17.779  0.5258E+00  0.1979E+02
  17.789  0.5187E+00  0.1979E+02
  17.799  0.5114E+00  0.1980E+02
  17.809  0.5038E+00  0.1980E+02
  17.819  0.4961E+00  0.1981E+02
  17.829  0.4882E+00  0.1981E+02
  17.839  0.4801E+00  0.1982E+02
  17.849  0.4718E+00  0.1982E+02
  17.859  0.4634E+00  0.1983E+02
  17.869  0.4549E+00  0.1983E+02
  17.879  0.4463E+00  0.1984E+02
  17.889  0.4376E+00  0.1984E+02
  17.899  0.4288E+00  0.1985E+02
  17.909  0.4199E+00  0.1985E+02
  17.919  0.4110E+00  0.1985E+02
  17.929  0.4021E+00  0.1986E+02
  17.939  0.3932E+00  0.1986E+02
  17.949  0.3843E+00  0.1987E+02
  17.959  0.3754E+00  0.1987E+02
  17.969  0.3666E+00  0.1987E+02
  17.979  0.3578E+00  0.1988E+02
  17.989  0.3491E+00  0.1988E+02
  17.999  0.3404E+00  0.1988E+02
  18.009  0.3318E+00  0.1989E+02
  18.019  0.3234E+00  0.1989E+02
  18.029  0.3150E+00  0.1989E+02
  18.039  0.3068E+00  0.1990E+02
  18.049  0.2987E+00  0.1990E+02
  18.059  0.2908E+00  0.1990E+02
  18.069  0.2830E+00  0.1990E+02
  18.079  0.2753E+00  0.1991E+02
  18.089  0.2678E+00  0.1991E+02
  18.099  0.2605E+00  0.1991E+02
  18.109  0.2533E+00  0.1992E+02
  18.119  0.2463E+00  0.1992E+02
  18.129  0.2394E+00  0.1992E+02
  18.139  0.2328E+00  0.1992E+02
  18.149  0.2263E+00  0.1992E+02
  18.159  0.2200E+00  0.1993E+02
  18.169  0.2138E+00  0.1993E+02
  18.179  0.2078E+00  0.1993E+02
  18.189  0.2020E+00  0.1993E+02
  18.199  0.1964E+00  0.1994E+02
  18.209  0.1909E+00  0.1994E+02
  18.219  0.1856E+00  0.1994E+02
  18.229  0.1804E+00  0.1994E+02
  18.239  0.1754E+00  0.1994E+02
  18.249  0.1706E+00  0.1994E+02
  18.259  0.1659E+00  0.1995E+02
  18.269  0.1613E+00  0.1995E+02
  18.279  0.1569E+00  0.1995E+02
  18.289  0.1526E+00  0.1995E+02
  18.299  0.1485E+00  0.1995E+02
  18.309  0.1445E+00  0.1995E+02
  18.319  0.1406E+00  0.1996E+02
  18.329  0.1368E+00  0.1996E+02
  18.339  0.1331E+00  0.1996E+02
  18.349  0.1296E+00  0.1996E+02
  18.359  0.1261E+00  0.1996E+02
  18.369  0.1228E+00  0.1996E+02
  18.379  0.1196E+00  0.1996E+02
  18.389  0.1164E+00  0.1996E+02
  18.399  0.1134E+00  0.1997E+02
  18.409  0.1104E+00  0.1997E+02
  18.419  0.1075E+00  0.1997E+02
  18.429  0.1047E+00  0.1997E+02
  18.439  0.1020E+00  0.1997E+02
  18.449  0.9936E-01  0.1997E+02
  18.459  0.9679E-01  0.1997E+02
  18.469  0.9429E-01  0.1997E+02
  18.479  0.9185E-01  0.1997E+02
  18.489  0.8947E-01  0.1997E+02
  18.499  0.8716E-01  0.1997E+02
  18.509  0.8490E-01  0.1998E+02
  18.519  0.8269E-01  0.1998E+02
  18.529  0.8054E-01  0.1998E+02
  18.539  0.7844E-01  0.1998E+02
  18.549  0.7638E-01  0.1998E+02
  18.559  0.7437E-01  0.1998E+02
  18.569  0.7240E-01  0.1998E+02
  18.579  0.7047E-01  0.1998E+02
  18.589  0.6858E-01  0.1998E+02
  18.599  0.6673E-01  0.1998E+02
  18.609  0.6492E-01  0.1998E+02
  18.619  0.6313E-01  0.1998E+02
  18.629  0.6138E-01  0.1998E+02
  18.639  0.5967E-01  0.1998E+02
  18.649  0.5798E-01  0.1999E+02
  18.659  0.5632E-01  0.1999E+02
  18.669  0.5469E-01  0.1999E+02
  18.679  0.5309E-01  0.1999E+02
  18.689  0.5151E-01  0.1999E+02
  18.699  0.4996E-01  0.1999E+02
  18.709  0.4844E-01  0.1999E+02
  18.719  0.4694E-01  0.1999E+02
  18.729  0.4547E-01  0.1999E+02
  18.739  0.4402E-01  0.1999E+02
  18.749  0.4259E-01  0.1999E+02
  18.759  0.4120E-01  0.1999E+02
  18.769  0.3982E-01  0.1999E+02
  18.779  0.3847E-01  0.1999E+02
  18.789  0.3715E-01  0.1999E+02
  18.799  0.3585E-01  0.1999E+02
  18.809  0.3458E-01  0.1999E+02
  18.819  0.3333E-01  0.1999E+02
  18.829  0.3211E-01  0.1999E+02
  18.839  0.3092E-01  0.1999E+02
  18.849  0.2975E-01  0.1999E+02
  18.859  0.2861E-01  0.1999E+02
  18.869  0.2750E-01  0.1999E+02
  18.879  0.2641E-01  0.1999E+02
  18.889  0.2535E-01  0.2000E+02
  18.899  0.2432E-01  0.2000E+02
  18.909  0.2332E-01  0.2000E+02
  18.919  0.2235E-01  0.2000E+02
  18.929  0.2140E-01  0.2000E+02
  18.939  0.2049E-01  0.2000E+02
  18.949  0.1960E-01  0.2000E+02
  18.959  0.1874E-01  0.2000E+02
  18.969  0.1790E-01  0.2000E+02
  18.979  0.1710E-01  0.2000E+02
  18.989  0.1632E-01  0.2000E+02
  18.999  0.1557E-01  0.2000E+02
  19.009  0.1485E-01  0.2000E+02
  19.019  0.1415E-01  0.2000E+02
  19.029  0.1348E-01  0.2000E+02
  19.039  0.1284E-01  0.2000E+02
  19.049  0.1222E-01  0.2000E+02
  19.059  0.1163E-01  0.2000E+02
  19.069  0.1106E-01  0.2000E+02
  19.079  0.1051E-01  0.2000E+02
  19.089  0.9989E-02  0.2000E+02
  19.099  0.9488E-02  0.2000E+02
  19.109  0.9008E-02  0.2000E+02
  19.119  0.8550E-02  0.2000E+02
  19.129  0.8111E-02  0.2000E+02
  19.139  0.7693E-02  0.2000E+02
  19.149  0.7293E-02  0.2000E+02
  19.159  0.6911E-02  0.2000E+02
  19.169  0.6547E-02  0.2000E+02
  19.179  0.6200E-02  0.2000E+02
  19.189  0.5868E-02  0.2000E+02
  19.199  0.5552E-02  0.2000E+02
  19.209  0.5252E-02  0.2000E+02
  19.219  0.4965E-02  0.2000E+02
  19.229  0.4692E-02  0.2000E+02
  19.239  0.4431E-02  0.2000E+02
  19.249  0.4184E-02  0.2000E+02
  19.259  0.3948E-02  0.2000E+02
  19.269  0.3723E-02  0.2000E+02
  19.279  0.3510E-02  0.2000E+02
  19.289  0.3306E-02  0.2000E+02
  19.299  0.3113E-02  0.2000E+02
  19.309  0.2929E-02  0.2000E+02
  19.319  0.2755E-02  0.2000E+02
  19.329  0.2589E-02  0.2000E+02
  19.339  0.2431E-02  0.2000E+02
  19.349  0.2281E-02  0.2000E+02
  19.359  0.2139E-02  0.2000E+02
  19.369  0.2004E-02  0.2000E+02
  19.379  0.1876E-02  0.2000E+02
  19.389  0.1755E-02  0.2000E+02
  19.399  0.1640E-02  0.2000E+02
  19.409  0.1531E-02  0.2000E+02
  19.419  0.1428E-02  0.2000E+02
  19.429  0.1331E-02  0.2000E+02
  19.439  0.1239E-02  0.2000E+02
  19.449  0.1152E-02  0.2000E+02
  19.459  0.1070E-02  0.2000E+02
  19.469  0.9932E-03  0.2000E+02
  19.479  0.9206E-03  0.2000E+02
  19.489  0.8523E-03  0.2000E+02
  19.499  0.7882E-03  0.2000E+02
  19.509  0.7281E-03  0.2000E+02
  19.519  0.6717E-03  0.2000E+02
  19.529  0.6189E-03  0.2000E+02
  19.539  0.5695E-03  0.2000E+02
  19.549  0.5234E-03  0.2000E+02
  19.559  0.4804E-03  0.2000E+02
  19.569  0.4403E-03  0.2000E+02
  19.579  0.4031E-03  0.2000E+02
  19.589  0.3684E-03  0.2000E+02
  19.599  0.3363E-03  0.2000E+02
  19.609  0.3066E-03  0.2000E+02
  19.619  0.2791E-03  0.2000E+02
  19.629  0.2537E-03  0.2000E+02
  19.639  0.2303E-03  0.2000E+02
  19.649  0.2087E-03  0.2000E+02
  19.659  0.1889E-03  0.2000E+02
  19.669  0.1707E-03  0.2000E+02
  19.679  0.1540E-03  0.2000E+02
  19.689  0.1387E-03  0.2000E+02
  19.699  0.1248E-03  0.2000E+02
  19.709  0.1121E-03  0.2000E+02
  19.719  0.1005E-03  0.2000E+02
  19.729  0.9001E-04  0.2000E+02
  19.739  0.8047E-04  0.2000E+02
  19.749  0.7182E-04  0.2000E+02
  19.759  0.6401E-04  0.2000E+02
  19.769  0.5695E-04  0.2000E+02
  19.779  0.5059E-04  0.2000E+02
  19.789  0.4487E-04  0.2000E+02
  19.799  0.3973E-04  0.2000E+02
  19.809  0.3513E-04  0.2000E+02
  19.819  0.3100E-04  0.2000E+02
  19.829  0.2732E-04  0.2000E+02
  19.839  0.2404E-04  0.2000E+02
  19.849  0.2111E-04  0.2000E+02
  19.859  0.1851E-04  0.2000E+02
  19.869  0.1621E-04  0.2000E+02
  19.879  0.1416E-04  0.2000E+02
  19.889  0.1236E-04  0.2000E+02
  19.899  0.1077E-04  0.2000E+02
  19.909  0.9363E-05  0.2000E+02
  19.919  0.8129E-05  0.2000E+02
  19.929  0.7046E-05  0.2000E+02
  19.939  0.6097E-05  0.2000E+02
  19.949  0.5267E-05  0.2000E+02
  19.959  0.4542E-05  0.2000E+02
  19.969  0.3911E-05  0.2000E+02
  19.979  0.3361E-05  0.2000E+02
  19.989  0.2884E-05  0.2000E+02
  19.999  0.2471E-05  0.2000E+02
  20.009  0.2113E-05  0.2000E+02
  20.019  0.1804E-05  0.2000E+02
  20.029  0.1537E-05  0.2000E+02
  20.039  0.1308E-05  0.2000E+02
  20.049  0.1111E-05  0.2000E+02
  20.059  0.9422E-06  0.2000E+02
  20.069  0.7976E-06  0.2000E+02
  20.079  0.6740E-06  0.2000E+02
  20.089  0.5687E-06  0.2000E+02
  20.099  0.4789E-06  0.2000E+02
  20.109  0.4027E-06  0.2000E+02
  20.119  0.3380E-06  0.2000E+02
