#  E (eV)   dos(E)     Int dos(E) EFermi =    6.588 eV
  -9.240  0.3977E-03  0.3977E-05
  -9.230  0.4789E-03  0.8766E-05
  -9.220  0.5757E-03  0.1452E-04
  -9.210  0.6909E-03  0.2143E-04
  -9.200  0.8279E-03  0.2971E-04
  -9.190  0.9903E-03  0.3961E-04
  -9.180  0.1183E-02  0.5144E-04
  -9.170  0.1410E-02  0.6554E-04
  -9.160  0.1678E-02  0.8233E-04
  -9.150  0.1995E-02  0.1023E-03
  -9.140  0.2366E-02  0.1259E-03
  -9.130  0.2803E-02  0.1540E-03
  -9.120  0.3315E-02  0.1871E-03
  -9.110  0.3913E-02  0.2262E-03
  -9.100  0.4612E-02  0.2724E-03
  -9.090  0.5428E-02  0.3266E-03
  -9.080  0.6376E-02  0.3904E-03
  -9.070  0.7479E-02  0.4652E-03
  -9.060  0.8757E-02  0.5528E-03
  -9.050  0.1024E-01  0.6551E-03
  -9.040  0.1195E-01  0.7746E-03
  -9.030  0.1392E-01  0.9139E-03
  -9.020  0.1620E-01  0.1076E-02
  -9.010  0.1881E-01  0.1264E-02
  -9.000  0.2181E-01  0.1482E-02
  -8.990  0.2525E-01  0.1734E-02
  -8.980  0.2918E-01  0.2026E-02
  -8.970  0.3367E-01  0.2363E-02
  -8.960  0.3878E-01  0.2751E-02
  -8.950  0.4460E-01  0.3197E-02
  -8.940  0.5121E-01  0.3709E-02
  -8.930  0.5870E-01  0.4296E-02
  -8.920  0.6718E-01  0.4968E-02
  -8.910  0.7676E-01  0.5735E-02
  -8.900  0.8756E-01  0.6611E-02
  -8.890  0.9971E-01  0.7608E-02
  -8.880  0.1134E+00  0.8742E-02
  -8.870  0.1287E+00  0.1003E-01
  -8.860  0.1458E+00  0.1149E-01
  -8.850  0.1650E+00  0.1314E-01
  -8.840  0.1864E+00  0.1500E-01
  -8.830  0.2102E+00  0.1710E-01
  -8.820  0.2366E+00  0.1947E-01
  -8.810  0.2660E+00  0.2213E-01
  -8.800  0.2985E+00  0.2511E-01
  -8.790  0.3344E+00  0.2846E-01
  -8.780  0.3740E+00  0.3220E-01
  -8.770  0.4177E+00  0.3637E-01
  -8.760  0.4657E+00  0.4103E-01
  -8.750  0.5183E+00  0.4621E-01
  -8.740  0.5760E+00  0.5197E-01
  -8.730  0.6390E+00  0.5836E-01
  -8.720  0.7078E+00  0.6544E-01
  -8.710  0.7826E+00  0.7327E-01
  -8.700  0.8640E+00  0.8191E-01
  -8.690  0.9523E+00  0.9143E-01
  -8.680  0.1048E+01  0.1019E+00
  -8.670  0.1151E+01  0.1134E+00
  -8.660  0.1263E+01  0.1261E+00
  -8.650  0.1383E+01  0.1399E+00
  -8.640  0.1512E+01  0.1550E+00
  -8.630  0.1650E+01  0.1715E+00
  -8.620  0.1798E+01  0.1895E+00
  -8.610  0.1956E+01  0.2090E+00
  -8.600  0.2124E+01  0.2303E+00
  -8.590  0.2303E+01  0.2533E+00
  -8.580  0.2493E+01  0.2782E+00
  -8.570  0.2695E+01  0.3052E+00
  -8.560  0.2908E+01  0.3343E+00
  -8.550  0.3132E+01  0.3656E+00
  -8.540  0.3369E+01  0.3993E+00
  -8.530  0.3617E+01  0.4354E+00
  -8.520  0.3877E+01  0.4742E+00
  -8.510  0.4149E+01  0.5157E+00
  -8.500  0.4433E+01  0.5600E+00
  -8.490  0.4729E+01  0.6073E+00
  -8.480  0.5036E+01  0.6577E+00
  -8.470  0.5355E+01  0.7112E+00
  -8.460  0.5684E+01  0.7681E+00
  -8.450  0.6023E+01  0.8283E+00
  -8.440  0.6372E+01  0.8920E+00
  -8.430  0.6731E+01  0.9593E+00
  -8.420  0.7098E+01  0.1030E+01
  -8.410  0.7472E+01  0.1105E+01
  -8.400  0.7854E+01  0.1184E+01
  -8.390  0.8241E+01  0.1266E+01
  -8.380  0.8634E+01  0.1352E+01
  -8.370  0.9030E+01  0.1443E+01
  -8.360  0.9429E+01  0.1537E+01
  -8.350  0.9829E+01  0.1635E+01
  -8.340  0.1023E+02  0.1737E+01
  -8.330  0.1063E+02  0.1844E+01
  -8.320  0.1102E+02  0.1954E+01
  -8.310  0.1142E+02  0.2068E+01
  -8.300  0.1180E+02  0.2186E+01
  -8.290  0.1218E+02  0.2308E+01
  -8.280  0.1256E+02  0.2434E+01
  -8.270  0.1292E+02  0.2563E+01
  -8.260  0.1327E+02  0.2695E+01
  -8.250  0.1360E+02  0.2832E+01
  -8.240  0.1393E+02  0.2971E+01
  -8.230  0.1423E+02  0.3113E+01
  -8.220  0.1452E+02  0.3258E+01
  -8.210  0.1479E+02  0.3406E+01
  -8.200  0.1504E+02  0.3557E+01
  -8.190  0.1527E+02  0.3709E+01
  -8.180  0.1548E+02  0.3864E+01
  -8.170  0.1567E+02  0.4021E+01
  -8.160  0.1583E+02  0.4179E+01
  -8.150  0.1596E+02  0.4339E+01
  -8.140  0.1607E+02  0.4500E+01
  -8.130  0.1616E+02  0.4661E+01
  -8.120  0.1622E+02  0.4823E+01
  -8.110  0.1625E+02  0.4986E+01
  -8.100  0.1625E+02  0.5148E+01
  -8.090  0.1623E+02  0.5311E+01
  -8.080  0.1618E+02  0.5472E+01
  -8.070  0.1610E+02  0.5633E+01
  -8.060  0.1600E+02  0.5793E+01
  -8.050  0.1587E+02  0.5952E+01
  -8.040  0.1572E+02  0.6109E+01
  -8.030  0.1554E+02  0.6265E+01
  -8.020  0.1534E+02  0.6418E+01
  -8.010  0.1512E+02  0.6569E+01
  -8.000  0.1487E+02  0.6718E+01
  -7.990  0.1460E+02  0.6864E+01
  -7.980  0.1432E+02  0.7007E+01
  -7.970  0.1402E+02  0.7147E+01
  -7.960  0.1370E+02  0.7284E+01
  -7.950  0.1336E+02  0.7418E+01
  -7.940  0.1302E+02  0.7548E+01
  -7.930  0.1266E+02  0.7675E+01
  -7.920  0.1228E+02  0.7798E+01
  -7.910  0.1191E+02  0.7917E+01
  -7.900  0.1152E+02  0.8032E+01
  -7.890  0.1113E+02  0.8143E+01
  -7.880  0.1073E+02  0.8250E+01
  -7.870  0.1033E+02  0.8354E+01
  -7.860  0.9925E+01  0.8453E+01
  -7.850  0.9522E+01  0.8548E+01
  -7.840  0.9120E+01  0.8639E+01
  -7.830  0.8721E+01  0.8727E+01
  -7.820  0.8325E+01  0.8810E+01
  -7.810  0.7934E+01  0.8889E+01
  -7.800  0.7549E+01  0.8965E+01
  -7.790  0.7170E+01  0.9036E+01
  -7.780  0.6799E+01  0.9104E+01
  -7.770  0.6437E+01  0.9169E+01
  -7.760  0.6083E+01  0.9230E+01
  -7.750  0.5739E+01  0.9287E+01
  -7.740  0.5406E+01  0.9341E+01
  -7.730  0.5083E+01  0.9392E+01
  -7.720  0.4772E+01  0.9439E+01
  -7.710  0.4472E+01  0.9484E+01
  -7.700  0.4184E+01  0.9526E+01
  -7.690  0.3908E+01  0.9565E+01
  -7.680  0.3644E+01  0.9602E+01
  -7.670  0.3392E+01  0.9635E+01
  -7.660  0.3152E+01  0.9667E+01
  -7.650  0.2924E+01  0.9696E+01
  -7.640  0.2709E+01  0.9723E+01
  -7.630  0.2504E+01  0.9748E+01
  -7.620  0.2312E+01  0.9772E+01
  -7.610  0.2130E+01  0.9793E+01
  -7.600  0.1960E+01  0.9812E+01
  -7.590  0.1800E+01  0.9830E+01
  -7.580  0.1650E+01  0.9847E+01
  -7.570  0.1511E+01  0.9862E+01
  -7.560  0.1380E+01  0.9876E+01
  -7.550  0.1259E+01  0.9888E+01
  -7.540  0.1147E+01  0.9900E+01
  -7.530  0.1043E+01  0.9910E+01
  -7.520  0.9463E+00  0.9920E+01
  -7.510  0.8574E+00  0.9928E+01
  -7.500  0.7756E+00  0.9936E+01
  -7.490  0.7004E+00  0.9943E+01
  -7.480  0.6314E+00  0.9949E+01
  -7.470  0.5683E+00  0.9955E+01
  -7.460  0.5106E+00  0.9960E+01
  -7.450  0.4580E+00  0.9965E+01
  -7.440  0.4101E+00  0.9969E+01
  -7.430  0.3666E+00  0.9973E+01
  -7.420  0.3271E+00  0.9976E+01
  -7.410  0.2914E+00  0.9979E+01
  -7.400  0.2592E+00  0.9981E+01
  -7.390  0.2302E+00  0.9984E+01
  -7.380  0.2040E+00  0.9986E+01
  -7.370  0.1805E+00  0.9987E+01
  -7.360  0.1595E+00  0.9989E+01
  -7.350  0.1406E+00  0.9990E+01
  -7.340  0.1238E+00  0.9992E+01
  -7.330  0.1088E+00  0.9993E+01
  -7.320  0.9548E-01  0.9994E+01
  -7.310  0.8363E-01  0.9995E+01
  -7.300  0.7313E-01  0.9995E+01
  -7.290  0.6384E-01  0.9996E+01
  -7.280  0.5563E-01  0.9997E+01
  -7.270  0.4840E-01  0.9997E+01
  -7.260  0.4204E-01  0.9997E+01
  -7.250  0.3645E-01  0.9998E+01
  -7.240  0.3155E-01  0.9998E+01
  -7.230  0.2726E-01  0.9998E+01
  -7.220  0.2352E-01  0.9999E+01
  -7.210  0.2025E-01  0.9999E+01
  -7.200  0.1741E-01  0.9999E+01
  -7.190  0.1494E-01  0.9999E+01
  -7.180  0.1280E-01  0.9999E+01
  -7.170  0.1095E-01  0.9999E+01
  -7.160  0.9350E-02  0.9999E+01
  -7.150  0.7970E-02  0.1000E+02
  -7.140  0.6782E-02  0.1000E+02
  -7.130  0.5762E-02  0.1000E+02
  -7.120  0.4886E-02  0.1000E+02
  -7.110  0.4137E-02  0.1000E+02
  -7.100  0.3496E-02  0.1000E+02
  -7.090  0.2950E-02  0.1000E+02
  -7.080  0.2485E-02  0.1000E+02
  -7.070  0.2090E-02  0.1000E+02
  -7.060  0.1754E-02  0.1000E+02
  -7.050  0.1470E-02  0.1000E+02
  -7.040  0.1230E-02  0.1000E+02
  -7.030  0.1027E-02  0.1000E+02
  -7.020  0.8564E-03  0.1000E+02
  -7.010  0.7128E-03  0.1000E+02
  -7.000  0.5923E-03  0.1000E+02
  -6.990  0.4913E-03  0.1000E+02
  -6.980  0.4068E-03  0.1000E+02
  -6.970  0.3363E-03  0.1000E+02
  -6.960  0.2776E-03  0.1000E+02
  -6.950  0.2287E-03  0.1000E+02
  -6.940  0.1881E-03  0.1000E+02
  -6.930  0.1545E-03  0.1000E+02
  -6.920  0.1267E-03  0.1000E+02
  -6.910  0.1037E-03  0.1000E+02
  -6.900  0.8474E-04  0.1000E+02
  -6.890  0.6916E-04  0.1000E+02
  -6.880  0.5638E-04  0.1000E+02
  -6.870  0.4591E-04  0.1000E+02
  -6.860  0.3736E-04  0.1000E+02
  -6.850  0.3039E-04  0.1000E+02
  -6.840  0.2474E-04  0.1000E+02
  -6.830  0.2017E-04  0.1000E+02
  -6.820  0.1650E-04  0.1000E+02
  -6.810  0.1357E-04  0.1000E+02
  -6.800  0.1125E-04  0.1000E+02
  -6.790  0.9455E-05  0.1000E+02
  -6.780  0.8089E-05  0.1000E+02
  -6.770  0.7092E-05  0.1000E+02
  -6.760  0.6412E-05  0.1000E+02
  -6.750  0.6012E-05  0.1000E+02
  -6.740  0.5865E-05  0.1000E+02
  -6.730  0.5953E-05  0.1000E+02
  -6.720  0.6267E-05  0.1000E+02
  -6.710  0.6805E-05  0.1000E+02
  -6.700  0.7573E-05  0.1000E+02
  -6.690  0.8584E-05  0.1000E+02
  -6.680  0.9856E-05  0.1000E+02
  -6.670  0.1142E-04  0.1000E+02
  -6.660  0.1330E-04  0.1000E+02
  -6.650  0.1554E-04  0.1000E+02
  -6.640  0.1819E-04  0.1000E+02
  -6.630  0.2131E-04  0.1000E+02
  -6.620  0.2497E-04  0.1000E+02
  -6.610  0.2923E-04  0.1000E+02
  -6.600  0.3418E-04  0.1000E+02
  -6.590  0.3993E-04  0.1000E+02
  -6.580  0.4659E-04  0.1000E+02
  -6.570  0.5429E-04  0.1000E+02
  -6.560  0.6316E-04  0.1000E+02
  -6.550  0.7337E-04  0.1000E+02
  -6.540  0.8511E-04  0.1000E+02
  -6.530  0.9858E-04  0.1000E+02
  -6.520  0.1140E-03  0.1000E+02
  -6.510  0.1316E-03  0.1000E+02
  -6.500  0.1517E-03  0.1000E+02
  -6.490  0.1747E-03  0.1000E+02
  -6.480  0.2007E-03  0.1000E+02
  -6.470  0.2303E-03  0.1000E+02
  -6.460  0.2639E-03  0.1000E+02
  -6.450  0.3019E-03  0.1000E+02
  -6.440  0.3448E-03  0.1000E+02
  -6.430  0.3933E-03  0.1000E+02
  -6.420  0.4478E-03  0.1000E+02
  -6.410  0.5092E-03  0.1000E+02
  -6.400  0.5780E-03  0.1000E+02
  -6.390  0.6552E-03  0.1000E+02
  -6.380  0.7415E-03  0.1000E+02
  -6.370  0.8380E-03  0.1000E+02
  -6.360  0.9456E-03  0.1000E+02
  -6.350  0.1065E-02  0.1000E+02
  -6.340  0.1198E-02  0.1000E+02
  -6.330  0.1346E-02  0.1000E+02
  -6.320  0.1510E-02  0.1000E+02
  -6.310  0.1691E-02  0.1000E+02
  -6.300  0.1891E-02  0.1000E+02
  -6.290  0.2112E-02  0.1000E+02
  -6.280  0.2355E-02  0.1000E+02
  -6.270  0.2621E-02  0.1000E+02
  -6.260  0.2914E-02  0.1000E+02
  -6.250  0.3235E-02  0.1000E+02
  -6.240  0.3586E-02  0.1000E+02
  -6.230  0.3970E-02  0.1000E+02
  -6.220  0.4387E-02  0.1000E+02
  -6.210  0.4842E-02  0.1000E+02
  -6.200  0.5337E-02  0.1000E+02
  -6.190  0.5874E-02  0.1000E+02
  -6.180  0.6455E-02  0.1000E+02
  -6.170  0.7084E-02  0.1000E+02
  -6.160  0.7764E-02  0.1000E+02
  -6.150  0.8496E-02  0.1000E+02
  -6.140  0.9285E-02  0.1000E+02
  -6.130  0.1013E-01  0.1000E+02
  -6.120  0.1104E-01  0.1000E+02
  -6.110  0.1202E-01  0.1000E+02
  -6.100  0.1306E-01  0.1000E+02
  -6.090  0.1418E-01  0.1000E+02
  -6.080  0.1537E-01  0.1000E+02
  -6.070  0.1663E-01  0.1000E+02
  -6.060  0.1798E-01  0.1000E+02
  -6.050  0.1941E-01  0.1000E+02
  -6.040  0.2093E-01  0.1000E+02
  -6.030  0.2254E-01  0.1000E+02
  -6.020  0.2424E-01  0.1000E+02
  -6.010  0.2603E-01  0.1000E+02
  -6.000  0.2792E-01  0.1000E+02
  -5.990  0.2991E-01  0.1000E+02
  -5.980  0.3200E-01  0.1000E+02
  -5.970  0.3419E-01  0.1000E+02
  -5.960  0.3649E-01  0.1000E+02
  -5.950  0.3890E-01  0.1001E+02
  -5.940  0.4141E-01  0.1001E+02
  -5.930  0.4403E-01  0.1001E+02
  -5.920  0.4677E-01  0.1001E+02
  -5.910  0.4961E-01  0.1001E+02
  -5.900  0.5257E-01  0.1001E+02
  -5.890  0.5563E-01  0.1001E+02
  -5.880  0.5881E-01  0.1001E+02
  -5.870  0.6210E-01  0.1001E+02
  -5.860  0.6550E-01  0.1001E+02
  -5.850  0.6901E-01  0.1001E+02
  -5.840  0.7263E-01  0.1001E+02
  -5.830  0.7635E-01  0.1001E+02
  -5.820  0.8018E-01  0.1001E+02
  -5.810  0.8411E-01  0.1001E+02
  -5.800  0.8814E-01  0.1001E+02
  -5.790  0.9227E-01  0.1002E+02
  -5.780  0.9650E-01  0.1002E+02
  -5.770  0.1008E+00  0.1002E+02
  -5.760  0.1052E+00  0.1002E+02
  -5.750  0.1097E+00  0.1002E+02
  -5.740  0.1143E+00  0.1002E+02
  -5.730  0.1189E+00  0.1002E+02
  -5.720  0.1237E+00  0.1002E+02
  -5.710  0.1285E+00  0.1002E+02
  -5.700  0.1333E+00  0.1003E+02
  -5.690  0.1383E+00  0.1003E+02
  -5.680  0.1433E+00  0.1003E+02
  -5.670  0.1483E+00  0.1003E+02
  -5.660  0.1534E+00  0.1003E+02
  -5.650  0.1585E+00  0.1003E+02
  -5.640  0.1637E+00  0.1003E+02
  -5.630  0.1689E+00  0.1004E+02
  -5.620  0.1742E+00  0.1004E+02
  -5.610  0.1795E+00  0.1004E+02
  -5.600  0.1848E+00  0.1004E+02
  -5.590  0.1901E+00  0.1004E+02
  -5.580  0.1955E+00  0.1005E+02
  -5.570  0.2008E+00  0.1005E+02
  -5.560  0.2062E+00  0.1005E+02
  -5.550  0.2116E+00  0.1005E+02
  -5.540  0.2170E+00  0.1005E+02
  -5.530  0.2224E+00  0.1006E+02
  -5.520  0.2277E+00  0.1006E+02
  -5.510  0.2331E+00  0.1006E+02
  -5.500  0.2385E+00  0.1006E+02
  -5.490  0.2439E+00  0.1007E+02
  -5.480  0.2492E+00  0.1007E+02
  -5.470  0.2546E+00  0.1007E+02
  -5.460  0.2599E+00  0.1007E+02
  -5.450  0.2652E+00  0.1008E+02
  -5.440  0.2705E+00  0.1008E+02
  -5.430  0.2758E+00  0.1008E+02
  -5.420  0.2811E+00  0.1008E+02
  -5.410  0.2863E+00  0.1009E+02
  -5.400  0.2916E+00  0.1009E+02
  -5.390  0.2968E+00  0.1009E+02
  -5.380  0.3020E+00  0.1010E+02
  -5.370  0.3071E+00  0.1010E+02
  -5.360  0.3123E+00  0.1010E+02
  -5.350  0.3174E+00  0.1011E+02
  -5.340  0.3225E+00  0.1011E+02
  -5.330  0.3276E+00  0.1011E+02
  -5.320  0.3327E+00  0.1012E+02
  -5.310  0.3377E+00  0.1012E+02
  -5.300  0.3428E+00  0.1012E+02
  -5.290  0.3478E+00  0.1013E+02
  -5.280  0.3528E+00  0.1013E+02
  -5.270  0.3578E+00  0.1013E+02
  -5.260  0.3628E+00  0.1014E+02
  -5.250  0.3678E+00  0.1014E+02
  -5.240  0.3728E+00  0.1014E+02
  -5.230  0.3777E+00  0.1015E+02
  -5.220  0.3827E+00  0.1015E+02
  -5.210  0.3876E+00  0.1016E+02
  -5.200  0.3926E+00  0.1016E+02
  -5.190  0.3975E+00  0.1016E+02
  -5.180  0.4025E+00  0.1017E+02
  -5.170  0.4074E+00  0.1017E+02
  -5.160  0.4123E+00  0.1018E+02
  -5.150  0.4173E+00  0.1018E+02
  -5.140  0.4223E+00  0.1018E+02
  -5.130  0.4272E+00  0.1019E+02
  -5.120  0.4322E+00  0.1019E+02
  -5.110  0.4372E+00  0.1020E+02
  -5.100  0.4422E+00  0.1020E+02
  -5.090  0.4472E+00  0.1021E+02
  -5.080  0.4523E+00  0.1021E+02
  -5.070  0.4573E+00  0.1021E+02
  -5.060  0.4624E+00  0.1022E+02
  -5.050  0.4675E+00  0.1022E+02
  -5.040  0.4726E+00  0.1023E+02
  -5.030  0.4778E+00  0.1023E+02
  -5.020  0.4830E+00  0.1024E+02
  -5.010  0.4882E+00  0.1024E+02
  -5.000  0.4934E+00  0.1025E+02
  -4.990  0.4987E+00  0.1025E+02
  -4.980  0.5041E+00  0.1026E+02
  -4.970  0.5094E+00  0.1026E+02
  -4.960  0.5148E+00  0.1027E+02
  -4.950  0.5203E+00  0.1027E+02
  -4.940  0.5258E+00  0.1028E+02
  -4.930  0.5313E+00  0.1028E+02
  -4.920  0.5369E+00  0.1029E+02
  -4.910  0.5426E+00  0.1030E+02
  -4.900  0.5483E+00  0.1030E+02
  -4.890  0.5541E+00  0.1031E+02
  -4.880  0.5599E+00  0.1031E+02
  -4.870  0.5658E+00  0.1032E+02
  -4.860  0.5718E+00  0.1032E+02
  -4.850  0.5779E+00  0.1033E+02
  -4.840  0.5840E+00  0.1033E+02
  -4.830  0.5902E+00  0.1034E+02
  -4.820  0.5965E+00  0.1035E+02
  -4.810  0.6029E+00  0.1035E+02
  -4.800  0.6094E+00  0.1036E+02
  -4.790  0.6159E+00  0.1036E+02
  -4.780  0.6226E+00  0.1037E+02
  -4.770  0.6294E+00  0.1038E+02
  -4.760  0.6362E+00  0.1038E+02
  -4.750  0.6432E+00  0.1039E+02
  -4.740  0.6503E+00  0.1040E+02
  -4.730  0.6575E+00  0.1040E+02
  -4.720  0.6649E+00  0.1041E+02
  -4.710  0.6723E+00  0.1042E+02
  -4.700  0.6799E+00  0.1042E+02
  -4.690  0.6876E+00  0.1043E+02
  -4.680  0.6955E+00  0.1044E+02
  -4.670  0.7035E+00  0.1044E+02
  -4.660  0.7116E+00  0.1045E+02
  -4.650  0.7199E+00  0.1046E+02
  -4.640  0.7284E+00  0.1047E+02
  -4.630  0.7369E+00  0.1047E+02
  -4.620  0.7457E+00  0.1048E+02
  -4.610  0.7546E+00  0.1049E+02
  -4.600  0.7636E+00  0.1050E+02
  -4.590  0.7728E+00  0.1050E+02
  -4.580  0.7822E+00  0.1051E+02
  -4.570  0.7918E+00  0.1052E+02
  -4.560  0.8015E+00  0.1053E+02
  -4.550  0.8113E+00  0.1054E+02
  -4.540  0.8214E+00  0.1054E+02
  -4.530  0.8316E+00  0.1055E+02
  -4.520  0.8419E+00  0.1056E+02
  -4.510  0.8524E+00  0.1057E+02
  -4.500  0.8631E+00  0.1058E+02
  -4.490  0.8739E+00  0.1059E+02
  -4.480  0.8849E+00  0.1060E+02
  -4.470  0.8960E+00  0.1060E+02
  -4.460  0.9073E+00  0.1061E+02
  -4.450  0.9187E+00  0.1062E+02
  -4.440  0.9302E+00  0.1063E+02
  -4.430  0.9419E+00  0.1064E+02
  -4.420  0.9536E+00  0.1065E+02
  -4.410  0.9655E+00  0.1066E+02
  -4.400  0.9775E+00  0.1067E+02
  -4.390  0.9896E+00  0.1068E+02
  -4.380  0.1002E+01  0.1069E+02
  -4.370  0.1014E+01  0.1070E+02
  -4.360  0.1026E+01  0.1071E+02
  -4.350  0.1039E+01  0.1072E+02
  -4.340  0.1051E+01  0.1073E+02
  -4.330  0.1063E+01  0.1074E+02
  -4.320  0.1076E+01  0.1075E+02
  -4.310  0.1088E+01  0.1076E+02
  -4.300  0.1100E+01  0.1077E+02
  -4.290  0.1113E+01  0.1079E+02
  -4.280  0.1125E+01  0.1080E+02
  -4.270  0.1137E+01  0.1081E+02
  -4.260  0.1150E+01  0.1082E+02
  -4.250  0.1162E+01  0.1083E+02
  -4.240  0.1174E+01  0.1084E+02
  -4.230  0.1186E+01  0.1086E+02
  -4.220  0.1197E+01  0.1087E+02
  -4.210  0.1209E+01  0.1088E+02
  -4.200  0.1220E+01  0.1089E+02
  -4.190  0.1232E+01  0.1090E+02
  -4.180  0.1243E+01  0.1092E+02
  -4.170  0.1254E+01  0.1093E+02
  -4.160  0.1264E+01  0.1094E+02
  -4.150  0.1275E+01  0.1095E+02
  -4.140  0.1285E+01  0.1097E+02
  -4.130  0.1295E+01  0.1098E+02
  -4.120  0.1305E+01  0.1099E+02
  -4.110  0.1314E+01  0.1101E+02
  -4.100  0.1324E+01  0.1102E+02
  -4.090  0.1332E+01  0.1103E+02
  -4.080  0.1341E+01  0.1105E+02
  -4.070  0.1349E+01  0.1106E+02
  -4.060  0.1357E+01  0.1107E+02
  -4.050  0.1365E+01  0.1109E+02
  -4.040  0.1372E+01  0.1110E+02
  -4.030  0.1379E+01  0.1111E+02
  -4.020  0.1386E+01  0.1113E+02
  -4.010  0.1392E+01  0.1114E+02
  -4.000  0.1397E+01  0.1116E+02
  -3.990  0.1403E+01  0.1117E+02
  -3.980  0.1408E+01  0.1118E+02
  -3.970  0.1412E+01  0.1120E+02
  -3.960  0.1416E+01  0.1121E+02
  -3.950  0.1420E+01  0.1123E+02
  -3.940  0.1423E+01  0.1124E+02
  -3.930  0.1426E+01  0.1125E+02
  -3.920  0.1428E+01  0.1127E+02
  -3.910  0.1430E+01  0.1128E+02
  -3.900  0.1431E+01  0.1130E+02
  -3.890  0.1432E+01  0.1131E+02
  -3.880  0.1432E+01  0.1133E+02
  -3.870  0.1432E+01  0.1134E+02
  -3.860  0.1431E+01  0.1136E+02
  -3.850  0.1429E+01  0.1137E+02
  -3.840  0.1427E+01  0.1138E+02
  -3.830  0.1424E+01  0.1140E+02
  -3.820  0.1421E+01  0.1141E+02
  -3.810  0.1417E+01  0.1143E+02
  -3.800  0.1412E+01  0.1144E+02
  -3.790  0.1407E+01  0.1145E+02
  -3.780  0.1401E+01  0.1147E+02
  -3.770  0.1394E+01  0.1148E+02
  -3.760  0.1387E+01  0.1150E+02
  -3.750  0.1378E+01  0.1151E+02
  -3.740  0.1369E+01  0.1152E+02
  -3.730  0.1360E+01  0.1154E+02
  -3.720  0.1349E+01  0.1155E+02
  -3.710  0.1338E+01  0.1156E+02
  -3.700  0.1326E+01  0.1158E+02
  -3.690  0.1313E+01  0.1159E+02
  -3.680  0.1299E+01  0.1160E+02
  -3.670  0.1285E+01  0.1162E+02
  -3.660  0.1270E+01  0.1163E+02
  -3.650  0.1254E+01  0.1164E+02
  -3.640  0.1237E+01  0.1165E+02
  -3.630  0.1220E+01  0.1167E+02
  -3.620  0.1201E+01  0.1168E+02
  -3.610  0.1183E+01  0.1169E+02
  -3.600  0.1163E+01  0.1170E+02
  -3.590  0.1143E+01  0.1171E+02
  -3.580  0.1122E+01  0.1172E+02
  -3.570  0.1100E+01  0.1174E+02
  -3.560  0.1078E+01  0.1175E+02
  -3.550  0.1055E+01  0.1176E+02
  -3.540  0.1032E+01  0.1177E+02
  -3.530  0.1008E+01  0.1178E+02
  -3.520  0.9842E+00  0.1179E+02
  -3.510  0.9596E+00  0.1180E+02
  -3.500  0.9346E+00  0.1181E+02
  -3.490  0.9093E+00  0.1182E+02
  -3.480  0.8838E+00  0.1182E+02
  -3.470  0.8580E+00  0.1183E+02
  -3.460  0.8320E+00  0.1184E+02
  -3.450  0.8060E+00  0.1185E+02
  -3.440  0.7798E+00  0.1186E+02
  -3.430  0.7536E+00  0.1186E+02
  -3.420  0.7275E+00  0.1187E+02
  -3.410  0.7014E+00  0.1188E+02
  -3.400  0.6754E+00  0.1189E+02
  -3.390  0.6496E+00  0.1189E+02
  -3.380  0.6240E+00  0.1190E+02
  -3.370  0.5987E+00  0.1190E+02
  -3.360  0.5737E+00  0.1191E+02
  -3.350  0.5490E+00  0.1192E+02
  -3.340  0.5247E+00  0.1192E+02
  -3.330  0.5008E+00  0.1193E+02
  -3.320  0.4774E+00  0.1193E+02
  -3.310  0.4545E+00  0.1193E+02
  -3.300  0.4321E+00  0.1194E+02
  -3.290  0.4103E+00  0.1194E+02
  -3.280  0.3890E+00  0.1195E+02
  -3.270  0.3684E+00  0.1195E+02
  -3.260  0.3484E+00  0.1195E+02
  -3.250  0.3290E+00  0.1196E+02
  -3.240  0.3102E+00  0.1196E+02
  -3.230  0.2921E+00  0.1196E+02
  -3.220  0.2747E+00  0.1197E+02
  -3.210  0.2579E+00  0.1197E+02
  -3.200  0.2419E+00  0.1197E+02
  -3.190  0.2265E+00  0.1197E+02
  -3.180  0.2117E+00  0.1198E+02
  -3.170  0.1977E+00  0.1198E+02
  -3.160  0.1843E+00  0.1198E+02
  -3.150  0.1716E+00  0.1198E+02
  -3.140  0.1595E+00  0.1198E+02
  -3.130  0.1481E+00  0.1198E+02
  -3.120  0.1372E+00  0.1199E+02
  -3.110  0.1270E+00  0.1199E+02
  -3.100  0.1173E+00  0.1199E+02
  -3.090  0.1083E+00  0.1199E+02
  -3.080  0.9976E-01  0.1199E+02
  -3.070  0.9177E-01  0.1199E+02
  -3.060  0.8429E-01  0.1199E+02
  -3.050  0.7731E-01  0.1199E+02
  -3.040  0.7080E-01  0.1199E+02
  -3.030  0.6473E-01  0.1199E+02
  -3.020  0.5910E-01  0.1199E+02
  -3.010  0.5387E-01  0.1200E+02
  -3.000  0.4903E-01  0.1200E+02
  -2.990  0.4455E-01  0.1200E+02
  -2.980  0.4043E-01  0.1200E+02
  -2.970  0.3662E-01  0.1200E+02
  -2.960  0.3313E-01  0.1200E+02
  -2.950  0.2992E-01  0.1200E+02
  -2.940  0.2697E-01  0.1200E+02
  -2.930  0.2428E-01  0.1200E+02
  -2.920  0.2183E-01  0.1200E+02
  -2.910  0.1959E-01  0.1200E+02
  -2.900  0.1755E-01  0.1200E+02
  -2.890  0.1570E-01  0.1200E+02
  -2.880  0.1403E-01  0.1200E+02
  -2.870  0.1251E-01  0.1200E+02
  -2.860  0.1114E-01  0.1200E+02
  -2.850  0.9900E-02  0.1200E+02
  -2.840  0.8787E-02  0.1200E+02
  -2.830  0.7786E-02  0.1200E+02
  -2.820  0.6889E-02  0.1200E+02
  -2.810  0.6084E-02  0.1200E+02
  -2.800  0.5366E-02  0.1200E+02
  -2.790  0.4724E-02  0.1200E+02
  -2.780  0.4153E-02  0.1200E+02
  -2.770  0.3644E-02  0.1200E+02
  -2.760  0.3193E-02  0.1200E+02
  -2.750  0.2793E-02  0.1200E+02
  -2.740  0.2440E-02  0.1200E+02
  -2.730  0.2127E-02  0.1200E+02
  -2.720  0.1852E-02  0.1200E+02
  -2.710  0.1609E-02  0.1200E+02
  -2.700  0.1397E-02  0.1200E+02
  -2.690  0.1210E-02  0.1200E+02
  -2.680  0.1046E-02  0.1200E+02
  -2.670  0.9035E-03  0.1200E+02
  -2.660  0.7789E-03  0.1200E+02
  -2.650  0.6703E-03  0.1200E+02
  -2.640  0.5760E-03  0.1200E+02
  -2.630  0.4941E-03  0.1200E+02
  -2.620  0.4232E-03  0.1200E+02
  -2.610  0.3618E-03  0.1200E+02
  -2.600  0.3089E-03  0.1200E+02
  -2.590  0.2632E-03  0.1200E+02
  -2.580  0.2239E-03  0.1200E+02
  -2.570  0.1902E-03  0.1200E+02
  -2.560  0.1613E-03  0.1200E+02
  -2.550  0.1366E-03  0.1200E+02
  -2.540  0.1154E-03  0.1200E+02
  -2.530  0.9741E-04  0.1200E+02
  -2.520  0.8206E-04  0.1200E+02
  -2.510  0.6901E-04  0.1200E+02
  -2.500  0.5795E-04  0.1200E+02
  -2.490  0.4858E-04  0.1200E+02
  -2.480  0.4065E-04  0.1200E+02
  -2.470  0.3396E-04  0.1200E+02
  -2.460  0.2833E-04  0.1200E+02
  -2.450  0.2359E-04  0.1200E+02
  -2.440  0.1961E-04  0.1200E+02
  -2.430  0.1628E-04  0.1200E+02
  -2.420  0.1349E-04  0.1200E+02
  -2.410  0.1115E-04  0.1200E+02
  -2.400  0.9212E-05  0.1200E+02
  -2.390  0.7595E-05  0.1200E+02
  -2.380  0.6251E-05  0.1200E+02
  -2.370  0.5136E-05  0.1200E+02
  -2.360  0.4213E-05  0.1200E+02
  -2.350  0.3450E-05  0.1200E+02
  -2.340  0.2821E-05  0.1200E+02
  -2.330  0.2303E-05  0.1200E+02
  -2.320  0.1876E-05  0.1200E+02
  -2.310  0.1526E-05  0.1200E+02
  -2.300  0.1240E-05  0.1200E+02
  -2.290  0.1005E-05  0.1200E+02
  -2.280  0.8134E-06  0.1200E+02
  -2.270  0.6573E-06  0.1200E+02
  -2.260  0.5302E-06  0.1200E+02
  -2.250  0.4270E-06  0.1200E+02
  -2.240  0.3433E-06  0.1200E+02
  -2.230  0.2756E-06  0.1200E+02
  -2.220  0.2208E-06  0.1200E+02
  -2.210  0.1766E-06  0.1200E+02
  -2.200  0.1411E-06  0.1200E+02
  -2.190  0.1125E-06  0.1200E+02
  -2.180  0.8952E-07  0.1200E+02
  -2.170  0.7113E-07  0.1200E+02
  -2.160  0.5643E-07  0.1200E+02
  -2.150  0.4468E-07  0.1200E+02
  -2.140  0.3533E-07  0.1200E+02
  -2.130  0.2788E-07  0.1200E+02
  -2.120  0.2197E-07  0.1200E+02
  -2.110  0.1728E-07  0.1200E+02
  -2.100  0.1357E-07  0.1200E+02
  -2.090  0.1064E-07  0.1200E+02
  -2.080  0.8326E-08  0.1200E+02
  -2.070  0.6505E-08  0.1200E+02
  -2.060  0.5074E-08  0.1200E+02
  -2.050  0.3951E-08  0.1200E+02
  -2.040  0.3071E-08  0.1200E+02
  -2.030  0.2384E-08  0.1200E+02
  -2.020  0.1847E-08  0.1200E+02
  -2.010  0.1428E-08  0.1200E+02
  -2.000  0.1103E-08  0.1200E+02
  -1.990  0.8501E-09  0.1200E+02
  -1.980  0.6541E-09  0.1200E+02
  -1.970  0.5025E-09  0.1200E+02
  -1.960  0.3854E-09  0.1200E+02
  -1.950  0.2951E-09  0.1200E+02
  -1.940  0.2255E-09  0.1200E+02
  -1.930  0.1721E-09  0.1200E+02
  -1.920  0.1311E-09  0.1200E+02
  -1.910  0.9968E-10  0.1200E+02
  -1.900  0.7568E-10  0.1200E+02
  -1.890  0.5735E-10  0.1200E+02
  -1.880  0.4339E-10  0.1200E+02
  -1.870  0.3278E-10  0.1200E+02
  -1.860  0.2472E-10  0.1200E+02
  -1.850  0.1861E-10  0.1200E+02
  -1.840  0.1398E-10  0.1200E+02
  -1.830  0.1049E-10  0.1200E+02
  -1.820  0.7861E-11  0.1200E+02
  -1.810  0.5881E-11  0.1200E+02
  -1.800  0.4394E-11  0.1200E+02
  -1.790  0.3281E-11  0.1200E+02
  -1.780  0.2450E-11  0.1200E+02
  -1.770  0.1832E-11  0.1200E+02
  -1.760  0.1375E-11  0.1200E+02
  -1.750  0.1042E-11  0.1200E+02
  -1.740  0.8018E-12  0.1200E+02
  -1.730  0.6353E-12  0.1200E+02
  -1.720  0.5276E-12  0.1200E+02
  -1.710  0.4691E-12  0.1200E+02
  -1.700  0.4544E-12  0.1200E+02
  -1.690  0.4820E-12  0.1200E+02
  -1.680  0.5540E-12  0.1200E+02
  -1.670  0.6763E-12  0.1200E+02
  -1.660  0.8591E-12  0.1200E+02
  -1.650  0.1117E-11  0.1200E+02
  -1.640  0.1473E-11  0.1200E+02
  -1.630  0.1954E-11  0.1200E+02
  -1.620  0.2599E-11  0.1200E+02
  -1.610  0.3461E-11  0.1200E+02
  -1.600  0.4608E-11  0.1200E+02
  -1.590  0.6129E-11  0.1200E+02
  -1.580  0.8142E-11  0.1200E+02
  -1.570  0.1080E-10  0.1200E+02
  -1.560  0.1430E-10  0.1200E+02
  -1.550  0.1891E-10  0.1200E+02
  -1.540  0.2497E-10  0.1200E+02
  -1.530  0.3291E-10  0.1200E+02
  -1.520  0.4330E-10  0.1200E+02
  -1.510  0.5689E-10  0.1200E+02
  -1.500  0.7461E-10  0.1200E+02
  -1.490  0.9769E-10  0.1200E+02
  -1.480  0.1277E-09  0.1200E+02
  -1.470  0.1667E-09  0.1200E+02
  -1.460  0.2171E-09  0.1200E+02
  -1.450  0.2824E-09  0.1200E+02
  -1.440  0.3668E-09  0.1200E+02
  -1.430  0.4755E-09  0.1200E+02
  -1.420  0.6155E-09  0.1200E+02
  -1.410  0.7953E-09  0.1200E+02
  -1.400  0.1026E-08  0.1200E+02
  -1.390  0.1322E-08  0.1200E+02
  -1.380  0.1699E-08  0.1200E+02
  -1.370  0.2181E-08  0.1200E+02
  -1.360  0.2796E-08  0.1200E+02
  -1.350  0.3578E-08  0.1200E+02
  -1.340  0.4570E-08  0.1200E+02
  -1.330  0.5829E-08  0.1200E+02
  -1.320  0.7422E-08  0.1200E+02
  -1.310  0.9434E-08  0.1200E+02
  -1.300  0.1197E-07  0.1200E+02
  -1.290  0.1517E-07  0.1200E+02
  -1.280  0.1919E-07  0.1200E+02
  -1.270  0.2424E-07  0.1200E+02
  -1.260  0.3056E-07  0.1200E+02
  -1.250  0.3848E-07  0.1200E+02
  -1.240  0.4836E-07  0.1200E+02
  -1.230  0.6068E-07  0.1200E+02
  -1.220  0.7601E-07  0.1200E+02
  -1.210  0.9507E-07  0.1200E+02
  -1.200  0.1187E-06  0.1200E+02
  -1.190  0.1480E-06  0.1200E+02
  -1.180  0.1842E-06  0.1200E+02
  -1.170  0.2289E-06  0.1200E+02
  -1.160  0.2840E-06  0.1200E+02
  -1.150  0.3518E-06  0.1200E+02
  -1.140  0.4351E-06  0.1200E+02
  -1.130  0.5372E-06  0.1200E+02
  -1.120  0.6622E-06  0.1200E+02
  -1.110  0.8149E-06  0.1200E+02
  -1.100  0.1001E-05  0.1200E+02
  -1.090  0.1229E-05  0.1200E+02
  -1.080  0.1505E-05  0.1200E+02
  -1.070  0.1840E-05  0.1200E+02
  -1.060  0.2247E-05  0.1200E+02
  -1.050  0.2739E-05  0.1200E+02
  -1.040  0.3333E-05  0.1200E+02
  -1.030  0.4050E-05  0.1200E+02
  -1.020  0.4914E-05  0.1200E+02
  -1.010  0.5952E-05  0.1200E+02
  -1.000  0.7198E-05  0.1200E+02
  -0.990  0.8692E-05  0.1200E+02
  -0.980  0.1048E-04  0.1200E+02
  -0.970  0.1261E-04  0.1200E+02
  -0.960  0.1516E-04  0.1200E+02
  -0.950  0.1819E-04  0.1200E+02
  -0.940  0.2179E-04  0.1200E+02
  -0.930  0.2606E-04  0.1200E+02
  -0.920  0.3112E-04  0.1200E+02
  -0.910  0.3711E-04  0.1200E+02
  -0.900  0.4418E-04  0.1200E+02
  -0.890  0.5251E-04  0.1200E+02
  -0.880  0.6232E-04  0.1200E+02
  -0.870  0.7385E-04  0.1200E+02
  -0.860  0.8737E-04  0.1200E+02
  -0.850  0.1032E-03  0.1200E+02
  -0.840  0.1217E-03  0.1200E+02
  -0.830  0.1434E-03  0.1200E+02
  -0.820  0.1686E-03  0.1200E+02
  -0.810  0.1979E-03  0.1200E+02
  -0.800  0.2320E-03  0.1200E+02
  -0.790  0.2715E-03  0.1200E+02
  -0.780  0.3173E-03  0.1200E+02
  -0.770  0.3702E-03  0.1200E+02
  -0.760  0.4314E-03  0.1200E+02
  -0.750  0.5018E-03  0.1200E+02
  -0.740  0.5828E-03  0.1200E+02
  -0.730  0.6759E-03  0.1200E+02
  -0.720  0.7827E-03  0.1200E+02
  -0.710  0.9050E-03  0.1200E+02
  -0.700  0.1045E-02  0.1200E+02
  -0.690  0.1204E-02  0.1200E+02
  -0.680  0.1386E-02  0.1200E+02
  -0.670  0.1593E-02  0.1200E+02
  -0.660  0.1828E-02  0.1200E+02
  -0.650  0.2095E-02  0.1200E+02
  -0.640  0.2397E-02  0.1200E+02
  -0.630  0.2739E-02  0.1200E+02
  -0.620  0.3124E-02  0.1200E+02
  -0.610  0.3559E-02  0.1200E+02
  -0.600  0.4047E-02  0.1200E+02
  -0.590  0.4596E-02  0.1200E+02
  -0.580  0.5212E-02  0.1200E+02
  -0.570  0.5902E-02  0.1200E+02
  -0.560  0.6673E-02  0.1200E+02
  -0.550  0.7534E-02  0.1200E+02
  -0.540  0.8494E-02  0.1200E+02
  -0.530  0.9562E-02  0.1200E+02
  -0.520  0.1075E-01  0.1200E+02
  -0.510  0.1206E-01  0.1200E+02
  -0.500  0.1352E-01  0.1200E+02
  -0.490  0.1513E-01  0.1200E+02
  -0.480  0.1691E-01  0.1200E+02
  -0.470  0.1887E-01  0.1200E+02
  -0.460  0.2103E-01  0.1200E+02
  -0.450  0.2340E-01  0.1200E+02
  -0.440  0.2600E-01  0.1200E+02
  -0.430  0.2885E-01  0.1200E+02
  -0.420  0.3197E-01  0.1200E+02
  -0.410  0.3537E-01  0.1200E+02
  -0.400  0.3908E-01  0.1200E+02
  -0.390  0.4311E-01  0.1200E+02
  -0.380  0.4750E-01  0.1200E+02
  -0.370  0.5226E-01  0.1201E+02
  -0.360  0.5741E-01  0.1201E+02
  -0.350  0.6298E-01  0.1201E+02
  -0.340  0.6900E-01  0.1201E+02
  -0.330  0.7548E-01  0.1201E+02
  -0.320  0.8246E-01  0.1201E+02
  -0.310  0.8996E-01  0.1201E+02
  -0.300  0.9800E-01  0.1201E+02
  -0.290  0.1066E+00  0.1201E+02
  -0.280  0.1158E+00  0.1201E+02
  -0.270  0.1257E+00  0.1201E+02
  -0.260  0.1361E+00  0.1202E+02
  -0.250  0.1473E+00  0.1202E+02
  -0.240  0.1591E+00  0.1202E+02
  -0.230  0.1717E+00  0.1202E+02
  -0.220  0.1850E+00  0.1202E+02
  -0.210  0.1990E+00  0.1202E+02
  -0.200  0.2139E+00  0.1203E+02
  -0.190  0.2295E+00  0.1203E+02
  -0.180  0.2459E+00  0.1203E+02
  -0.170  0.2632E+00  0.1203E+02
  -0.160  0.2813E+00  0.1204E+02
  -0.150  0.3002E+00  0.1204E+02
  -0.140  0.3199E+00  0.1204E+02
  -0.130  0.3406E+00  0.1205E+02
  -0.120  0.3620E+00  0.1205E+02
  -0.110  0.3843E+00  0.1205E+02
  -0.100  0.4074E+00  0.1206E+02
  -0.090  0.4313E+00  0.1206E+02
  -0.080  0.4561E+00  0.1207E+02
  -0.070  0.4816E+00  0.1207E+02
  -0.060  0.5078E+00  0.1208E+02
  -0.050  0.5348E+00  0.1208E+02
  -0.040  0.5625E+00  0.1209E+02
  -0.030  0.5909E+00  0.1209E+02
  -0.020  0.6198E+00  0.1210E+02
  -0.010  0.6494E+00  0.1211E+02
   0.000  0.6794E+00  0.1211E+02
   0.010  0.7100E+00  0.1212E+02
   0.020  0.7409E+00  0.1213E+02
   0.030  0.7722E+00  0.1213E+02
   0.040  0.8038E+00  0.1214E+02
   0.050  0.8357E+00  0.1215E+02
   0.060  0.8676E+00  0.1216E+02
   0.070  0.8997E+00  0.1217E+02
   0.080  0.9318E+00  0.1218E+02
   0.090  0.9638E+00  0.1219E+02
   0.100  0.9956E+00  0.1220E+02
   0.110  0.1027E+01  0.1221E+02
   0.120  0.1059E+01  0.1222E+02
   0.130  0.1089E+01  0.1223E+02
   0.140  0.1120E+01  0.1224E+02
   0.150  0.1150E+01  0.1225E+02
   0.160  0.1179E+01  0.1226E+02
   0.170  0.1208E+01  0.1228E+02
   0.180  0.1235E+01  0.1229E+02
   0.190  0.1262E+01  0.1230E+02
   0.200  0.1288E+01  0.1231E+02
   0.210  0.1313E+01  0.1233E+02
   0.220  0.1337E+01  0.1234E+02
   0.230  0.1360E+01  0.1235E+02
   0.240  0.1381E+01  0.1237E+02
   0.250  0.1401E+01  0.1238E+02
   0.260  0.1420E+01  0.1240E+02
   0.270  0.1438E+01  0.1241E+02
   0.280  0.1454E+01  0.1242E+02
   0.290  0.1469E+01  0.1244E+02
   0.300  0.1482E+01  0.1245E+02
   0.310  0.1494E+01  0.1247E+02
   0.320  0.1504E+01  0.1248E+02
   0.330  0.1513E+01  0.1250E+02
   0.340  0.1520E+01  0.1251E+02
   0.350  0.1526E+01  0.1253E+02
   0.360  0.1530E+01  0.1255E+02
   0.370  0.1533E+01  0.1256E+02
   0.380  0.1534E+01  0.1258E+02
   0.390  0.1534E+01  0.1259E+02
   0.400  0.1533E+01  0.1261E+02
   0.410  0.1530E+01  0.1262E+02
   0.420  0.1525E+01  0.1264E+02
   0.430  0.1520E+01  0.1265E+02
   0.440  0.1513E+01  0.1267E+02
   0.450  0.1504E+01  0.1268E+02
   0.460  0.1495E+01  0.1270E+02
   0.470  0.1485E+01  0.1271E+02
   0.480  0.1473E+01  0.1273E+02
   0.490  0.1461E+01  0.1274E+02
   0.500  0.1447E+01  0.1276E+02
   0.510  0.1433E+01  0.1277E+02
   0.520  0.1418E+01  0.1278E+02
   0.530  0.1402E+01  0.1280E+02
   0.540  0.1386E+01  0.1281E+02
   0.550  0.1369E+01  0.1283E+02
   0.560  0.1351E+01  0.1284E+02
   0.570  0.1333E+01  0.1285E+02
   0.580  0.1315E+01  0.1287E+02
   0.590  0.1296E+01  0.1288E+02
   0.600  0.1277E+01  0.1289E+02
   0.610  0.1258E+01  0.1290E+02
   0.620  0.1238E+01  0.1292E+02
   0.630  0.1218E+01  0.1293E+02
   0.640  0.1199E+01  0.1294E+02
   0.650  0.1179E+01  0.1295E+02
   0.660  0.1159E+01  0.1296E+02
   0.670  0.1140E+01  0.1298E+02
   0.680  0.1120E+01  0.1299E+02
   0.690  0.1101E+01  0.1300E+02
   0.700  0.1081E+01  0.1301E+02
   0.710  0.1062E+01  0.1302E+02
   0.720  0.1043E+01  0.1303E+02
   0.730  0.1025E+01  0.1304E+02
   0.740  0.1007E+01  0.1305E+02
   0.750  0.9888E+00  0.1306E+02
   0.760  0.9711E+00  0.1307E+02
   0.770  0.9539E+00  0.1308E+02
   0.780  0.9369E+00  0.1309E+02
   0.790  0.9204E+00  0.1310E+02
   0.800  0.9041E+00  0.1311E+02
   0.810  0.8883E+00  0.1312E+02
   0.820  0.8729E+00  0.1312E+02
   0.830  0.8578E+00  0.1313E+02
   0.840  0.8431E+00  0.1314E+02
   0.850  0.8288E+00  0.1315E+02
   0.860  0.8149E+00  0.1316E+02
   0.870  0.8013E+00  0.1317E+02
   0.880  0.7881E+00  0.1317E+02
   0.890  0.7753E+00  0.1318E+02
   0.900  0.7629E+00  0.1319E+02
   0.910  0.7508E+00  0.1320E+02
   0.920  0.7390E+00  0.1320E+02
   0.930  0.7276E+00  0.1321E+02
   0.940  0.7165E+00  0.1322E+02
   0.950  0.7057E+00  0.1323E+02
   0.960  0.6953E+00  0.1323E+02
   0.970  0.6851E+00  0.1324E+02
   0.980  0.6753E+00  0.1325E+02
   0.990  0.6657E+00  0.1325E+02
   1.000  0.6564E+00  0.1326E+02
   1.010  0.6474E+00  0.1327E+02
   1.020  0.6386E+00  0.1327E+02
   1.030  0.6300E+00  0.1328E+02
   1.040  0.6217E+00  0.1328E+02
   1.050  0.6136E+00  0.1329E+02
   1.060  0.6058E+00  0.1330E+02
   1.070  0.5981E+00  0.1330E+02
   1.080  0.5907E+00  0.1331E+02
   1.090  0.5834E+00  0.1331E+02
   1.100  0.5764E+00  0.1332E+02
   1.110  0.5695E+00  0.1333E+02
   1.120  0.5628E+00  0.1333E+02
   1.130  0.5562E+00  0.1334E+02
   1.140  0.5498E+00  0.1334E+02
   1.150  0.5436E+00  0.1335E+02
   1.160  0.5375E+00  0.1335E+02
   1.170  0.5315E+00  0.1336E+02
   1.180  0.5257E+00  0.1336E+02
   1.190  0.5200E+00  0.1337E+02
   1.200  0.5144E+00  0.1337E+02
   1.210  0.5090E+00  0.1338E+02
   1.220  0.5036E+00  0.1338E+02
   1.230  0.4984E+00  0.1339E+02
   1.240  0.4932E+00  0.1339E+02
   1.250  0.4882E+00  0.1340E+02
   1.260  0.4833E+00  0.1340E+02
   1.270  0.4784E+00  0.1341E+02
   1.280  0.4737E+00  0.1341E+02
   1.290  0.4690E+00  0.1342E+02
   1.300  0.4644E+00  0.1342E+02
   1.310  0.4599E+00  0.1343E+02
   1.320  0.4555E+00  0.1343E+02
   1.330  0.4512E+00  0.1344E+02
   1.340  0.4469E+00  0.1344E+02
   1.350  0.4427E+00  0.1345E+02
   1.360  0.4386E+00  0.1345E+02
   1.370  0.4345E+00  0.1345E+02
   1.380  0.4305E+00  0.1346E+02
   1.390  0.4266E+00  0.1346E+02
   1.400  0.4227E+00  0.1347E+02
   1.410  0.4189E+00  0.1347E+02
   1.420  0.4151E+00  0.1348E+02
   1.430  0.4114E+00  0.1348E+02
   1.440  0.4078E+00  0.1348E+02
   1.450  0.4042E+00  0.1349E+02
   1.460  0.4006E+00  0.1349E+02
   1.470  0.3972E+00  0.1350E+02
   1.480  0.3937E+00  0.1350E+02
   1.490  0.3903E+00  0.1350E+02
   1.500  0.3870E+00  0.1351E+02
   1.510  0.3837E+00  0.1351E+02
   1.520  0.3805E+00  0.1352E+02
   1.530  0.3773E+00  0.1352E+02
   1.540  0.3741E+00  0.1352E+02
   1.550  0.3710E+00  0.1353E+02
   1.560  0.3679E+00  0.1353E+02
   1.570  0.3649E+00  0.1353E+02
   1.580  0.3619E+00  0.1354E+02
   1.590  0.3590E+00  0.1354E+02
   1.600  0.3561E+00  0.1354E+02
   1.610  0.3532E+00  0.1355E+02
   1.620  0.3504E+00  0.1355E+02
   1.630  0.3476E+00  0.1356E+02
   1.640  0.3448E+00  0.1356E+02
   1.650  0.3421E+00  0.1356E+02
   1.660  0.3394E+00  0.1357E+02
   1.670  0.3367E+00  0.1357E+02
   1.680  0.3340E+00  0.1357E+02
   1.690  0.3314E+00  0.1358E+02
   1.700  0.3288E+00  0.1358E+02
   1.710  0.3263E+00  0.1358E+02
   1.720  0.3237E+00  0.1359E+02
   1.730  0.3212E+00  0.1359E+02
   1.740  0.3187E+00  0.1359E+02
   1.750  0.3162E+00  0.1359E+02
   1.760  0.3138E+00  0.1360E+02
   1.770  0.3114E+00  0.1360E+02
   1.780  0.3090E+00  0.1360E+02
   1.790  0.3066E+00  0.1361E+02
   1.800  0.3042E+00  0.1361E+02
   1.810  0.3019E+00  0.1361E+02
   1.820  0.2996E+00  0.1362E+02
   1.830  0.2973E+00  0.1362E+02
   1.840  0.2950E+00  0.1362E+02
   1.850  0.2928E+00  0.1363E+02
   1.860  0.2906E+00  0.1363E+02
   1.870  0.2884E+00  0.1363E+02
   1.880  0.2862E+00  0.1363E+02
   1.890  0.2840E+00  0.1364E+02
   1.900  0.2819E+00  0.1364E+02
   1.910  0.2798E+00  0.1364E+02
   1.920  0.2777E+00  0.1365E+02
   1.930  0.2756E+00  0.1365E+02
   1.940  0.2736E+00  0.1365E+02
   1.950  0.2716E+00  0.1365E+02
   1.960  0.2696E+00  0.1366E+02
   1.970  0.2677E+00  0.1366E+02
   1.980  0.2657E+00  0.1366E+02
   1.990  0.2638E+00  0.1366E+02
   2.000  0.2619E+00  0.1367E+02
   2.010  0.2601E+00  0.1367E+02
   2.020  0.2582E+00  0.1367E+02
   2.030  0.2564E+00  0.1367E+02
   2.040  0.2546E+00  0.1368E+02
   2.050  0.2528E+00  0.1368E+02
   2.060  0.2511E+00  0.1368E+02
   2.070  0.2494E+00  0.1368E+02
   2.080  0.2477E+00  0.1369E+02
   2.090  0.2460E+00  0.1369E+02
   2.100  0.2443E+00  0.1369E+02
   2.110  0.2427E+00  0.1369E+02
   2.120  0.2411E+00  0.1370E+02
   2.130  0.2395E+00  0.1370E+02
   2.140  0.2379E+00  0.1370E+02
   2.150  0.2363E+00  0.1370E+02
   2.160  0.2348E+00  0.1371E+02
   2.170  0.2333E+00  0.1371E+02
   2.180  0.2318E+00  0.1371E+02
   2.190  0.2303E+00  0.1371E+02
   2.200  0.2289E+00  0.1372E+02
   2.210  0.2274E+00  0.1372E+02
   2.220  0.2260E+00  0.1372E+02
   2.230  0.2247E+00  0.1372E+02
   2.240  0.2234E+00  0.1372E+02
   2.250  0.2221E+00  0.1373E+02
   2.260  0.2208E+00  0.1373E+02
   2.270  0.2196E+00  0.1373E+02
   2.280  0.2185E+00  0.1373E+02
   2.290  0.2174E+00  0.1374E+02
   2.300  0.2163E+00  0.1374E+02
   2.310  0.2153E+00  0.1374E+02
   2.320  0.2144E+00  0.1374E+02
   2.330  0.2136E+00  0.1374E+02
   2.340  0.2128E+00  0.1375E+02
   2.350  0.2122E+00  0.1375E+02
   2.360  0.2116E+00  0.1375E+02
   2.370  0.2112E+00  0.1375E+02
   2.380  0.2108E+00  0.1375E+02
   2.390  0.2106E+00  0.1376E+02
   2.400  0.2106E+00  0.1376E+02
   2.410  0.2107E+00  0.1376E+02
   2.420  0.2109E+00  0.1376E+02
   2.430  0.2113E+00  0.1377E+02
   2.440  0.2119E+00  0.1377E+02
   2.450  0.2127E+00  0.1377E+02
   2.460  0.2137E+00  0.1377E+02
   2.470  0.2149E+00  0.1377E+02
   2.480  0.2163E+00  0.1378E+02
   2.490  0.2180E+00  0.1378E+02
   2.500  0.2200E+00  0.1378E+02
   2.510  0.2222E+00  0.1378E+02
   2.520  0.2247E+00  0.1378E+02
   2.530  0.2275E+00  0.1379E+02
   2.540  0.2306E+00  0.1379E+02
   2.550  0.2341E+00  0.1379E+02
   2.560  0.2378E+00  0.1379E+02
   2.570  0.2420E+00  0.1380E+02
   2.580  0.2465E+00  0.1380E+02
   2.590  0.2513E+00  0.1380E+02
   2.600  0.2566E+00  0.1380E+02
   2.610  0.2622E+00  0.1381E+02
   2.620  0.2683E+00  0.1381E+02
   2.630  0.2748E+00  0.1381E+02
   2.640  0.2817E+00  0.1381E+02
   2.650  0.2891E+00  0.1382E+02
   2.660  0.2969E+00  0.1382E+02
   2.670  0.3052E+00  0.1382E+02
   2.680  0.3139E+00  0.1383E+02
   2.690  0.3231E+00  0.1383E+02
   2.700  0.3328E+00  0.1383E+02
   2.710  0.3430E+00  0.1384E+02
   2.720  0.3536E+00  0.1384E+02
   2.730  0.3647E+00  0.1384E+02
   2.740  0.3762E+00  0.1385E+02
   2.750  0.3883E+00  0.1385E+02
   2.760  0.4007E+00  0.1386E+02
   2.770  0.4137E+00  0.1386E+02
   2.780  0.4271E+00  0.1386E+02
   2.790  0.4409E+00  0.1387E+02
   2.800  0.4552E+00  0.1387E+02
   2.810  0.4698E+00  0.1388E+02
   2.820  0.4849E+00  0.1388E+02
   2.830  0.5003E+00  0.1389E+02
   2.840  0.5161E+00  0.1389E+02
   2.850  0.5323E+00  0.1390E+02
   2.860  0.5487E+00  0.1390E+02
   2.870  0.5655E+00  0.1391E+02
   2.880  0.5825E+00  0.1391E+02
   2.890  0.5998E+00  0.1392E+02
   2.900  0.6172E+00  0.1393E+02
   2.910  0.6349E+00  0.1393E+02
   2.920  0.6527E+00  0.1394E+02
   2.930  0.6707E+00  0.1395E+02
   2.940  0.6887E+00  0.1395E+02
   2.950  0.7068E+00  0.1396E+02
   2.960  0.7249E+00  0.1397E+02
   2.970  0.7430E+00  0.1398E+02
   2.980  0.7611E+00  0.1398E+02
   2.990  0.7791E+00  0.1399E+02
   3.000  0.7970E+00  0.1400E+02
   3.010  0.8147E+00  0.1401E+02
   3.020  0.8323E+00  0.1402E+02
   3.030  0.8496E+00  0.1402E+02
   3.040  0.8668E+00  0.1403E+02
   3.050  0.8836E+00  0.1404E+02
   3.060  0.9002E+00  0.1405E+02
   3.070  0.9164E+00  0.1406E+02
   3.080  0.9323E+00  0.1407E+02
   3.090  0.9478E+00  0.1408E+02
   3.100  0.9629E+00  0.1409E+02
   3.110  0.9775E+00  0.1410E+02
   3.120  0.9917E+00  0.1411E+02
   3.130  0.1005E+01  0.1412E+02
   3.140  0.1019E+01  0.1413E+02
   3.150  0.1032E+01  0.1414E+02
   3.160  0.1044E+01  0.1415E+02
   3.170  0.1056E+01  0.1416E+02
   3.180  0.1067E+01  0.1417E+02
   3.190  0.1078E+01  0.1418E+02
   3.200  0.1088E+01  0.1419E+02
   3.210  0.1097E+01  0.1420E+02
   3.220  0.1106E+01  0.1421E+02
   3.230  0.1115E+01  0.1422E+02
   3.240  0.1123E+01  0.1424E+02
   3.250  0.1131E+01  0.1425E+02
   3.260  0.1138E+01  0.1426E+02
   3.270  0.1144E+01  0.1427E+02
   3.280  0.1150E+01  0.1428E+02
   3.290  0.1156E+01  0.1429E+02
   3.300  0.1161E+01  0.1430E+02
   3.310  0.1166E+01  0.1432E+02
   3.320  0.1170E+01  0.1433E+02
   3.330  0.1174E+01  0.1434E+02
   3.340  0.1178E+01  0.1435E+02
   3.350  0.1181E+01  0.1436E+02
   3.360  0.1184E+01  0.1438E+02
   3.370  0.1187E+01  0.1439E+02
   3.380  0.1189E+01  0.1440E+02
   3.390  0.1191E+01  0.1441E+02
   3.400  0.1193E+01  0.1442E+02
   3.410  0.1194E+01  0.1443E+02
   3.420  0.1196E+01  0.1445E+02
   3.430  0.1197E+01  0.1446E+02
   3.440  0.1198E+01  0.1447E+02
   3.450  0.1200E+01  0.1448E+02
   3.460  0.1201E+01  0.1449E+02
   3.470  0.1202E+01  0.1451E+02
   3.480  0.1203E+01  0.1452E+02
   3.490  0.1203E+01  0.1453E+02
   3.500  0.1204E+01  0.1454E+02
   3.510  0.1205E+01  0.1455E+02
   3.520  0.1206E+01  0.1457E+02
   3.530  0.1208E+01  0.1458E+02
   3.540  0.1209E+01  0.1459E+02
   3.550  0.1210E+01  0.1460E+02
   3.560  0.1212E+01  0.1462E+02
   3.570  0.1213E+01  0.1463E+02
   3.580  0.1215E+01  0.1464E+02
   3.590  0.1217E+01  0.1465E+02
   3.600  0.1219E+01  0.1466E+02
   3.610  0.1221E+01  0.1468E+02
   3.620  0.1223E+01  0.1469E+02
   3.630  0.1226E+01  0.1470E+02
   3.640  0.1229E+01  0.1471E+02
   3.650  0.1232E+01  0.1473E+02
   3.660  0.1235E+01  0.1474E+02
   3.670  0.1239E+01  0.1475E+02
   3.680  0.1242E+01  0.1476E+02
   3.690  0.1246E+01  0.1477E+02
   3.700  0.1250E+01  0.1479E+02
   3.710  0.1255E+01  0.1480E+02
   3.720  0.1259E+01  0.1481E+02
   3.730  0.1264E+01  0.1483E+02
   3.740  0.1269E+01  0.1484E+02
   3.750  0.1274E+01  0.1485E+02
   3.760  0.1280E+01  0.1486E+02
   3.770  0.1285E+01  0.1488E+02
   3.780  0.1291E+01  0.1489E+02
   3.790  0.1297E+01  0.1490E+02
   3.800  0.1303E+01  0.1492E+02
   3.810  0.1310E+01  0.1493E+02
   3.820  0.1316E+01  0.1494E+02
   3.830  0.1323E+01  0.1495E+02
   3.840  0.1329E+01  0.1497E+02
   3.850  0.1336E+01  0.1498E+02
   3.860  0.1343E+01  0.1499E+02
   3.870  0.1350E+01  0.1501E+02
   3.880  0.1357E+01  0.1502E+02
   3.890  0.1364E+01  0.1504E+02
   3.900  0.1372E+01  0.1505E+02
   3.910  0.1379E+01  0.1506E+02
   3.920  0.1386E+01  0.1508E+02
   3.930  0.1394E+01  0.1509E+02
   3.940  0.1401E+01  0.1510E+02
   3.950  0.1408E+01  0.1512E+02
   3.960  0.1416E+01  0.1513E+02
   3.970  0.1423E+01  0.1515E+02
   3.980  0.1430E+01  0.1516E+02
   3.990  0.1437E+01  0.1518E+02
   4.000  0.1445E+01  0.1519E+02
   4.010  0.1452E+01  0.1520E+02
   4.020  0.1459E+01  0.1522E+02
   4.030  0.1465E+01  0.1523E+02
   4.040  0.1472E+01  0.1525E+02
   4.050  0.1479E+01  0.1526E+02
   4.060  0.1485E+01  0.1528E+02
   4.070  0.1492E+01  0.1529E+02
   4.080  0.1498E+01  0.1531E+02
   4.090  0.1504E+01  0.1532E+02
   4.100  0.1510E+01  0.1534E+02
   4.110  0.1516E+01  0.1535E+02
   4.120  0.1522E+01  0.1537E+02
   4.130  0.1527E+01  0.1538E+02
   4.140  0.1532E+01  0.1540E+02
   4.150  0.1537E+01  0.1541E+02
   4.160  0.1542E+01  0.1543E+02
   4.170  0.1547E+01  0.1545E+02
   4.180  0.1551E+01  0.1546E+02
   4.190  0.1555E+01  0.1548E+02
   4.200  0.1559E+01  0.1549E+02
   4.210  0.1563E+01  0.1551E+02
   4.220  0.1567E+01  0.1552E+02
   4.230  0.1570E+01  0.1554E+02
   4.240  0.1573E+01  0.1556E+02
   4.250  0.1576E+01  0.1557E+02
   4.260  0.1579E+01  0.1559E+02
   4.270  0.1581E+01  0.1560E+02
   4.280  0.1584E+01  0.1562E+02
   4.290  0.1586E+01  0.1563E+02
   4.300  0.1588E+01  0.1565E+02
   4.310  0.1589E+01  0.1567E+02
   4.320  0.1591E+01  0.1568E+02
   4.330  0.1592E+01  0.1570E+02
   4.340  0.1593E+01  0.1571E+02
   4.350  0.1593E+01  0.1573E+02
   4.360  0.1594E+01  0.1575E+02
   4.370  0.1594E+01  0.1576E+02
   4.380  0.1595E+01  0.1578E+02
   4.390  0.1595E+01  0.1579E+02
   4.400  0.1594E+01  0.1581E+02
   4.410  0.1594E+01  0.1583E+02
   4.420  0.1594E+01  0.1584E+02
   4.430  0.1593E+01  0.1586E+02
   4.440  0.1592E+01  0.1587E+02
   4.450  0.1591E+01  0.1589E+02
   4.460  0.1590E+01  0.1590E+02
   4.470  0.1589E+01  0.1592E+02
   4.480  0.1587E+01  0.1594E+02
   4.490  0.1586E+01  0.1595E+02
   4.500  0.1584E+01  0.1597E+02
   4.510  0.1582E+01  0.1598E+02
   4.520  0.1580E+01  0.1600E+02
   4.530  0.1578E+01  0.1602E+02
   4.540  0.1576E+01  0.1603E+02
   4.550  0.1574E+01  0.1605E+02
   4.560  0.1572E+01  0.1606E+02
   4.570  0.1570E+01  0.1608E+02
   4.580  0.1567E+01  0.1609E+02
   4.590  0.1565E+01  0.1611E+02
   4.600  0.1563E+01  0.1613E+02
   4.610  0.1560E+01  0.1614E+02
   4.620  0.1558E+01  0.1616E+02
   4.630  0.1555E+01  0.1617E+02
   4.640  0.1553E+01  0.1619E+02
   4.650  0.1550E+01  0.1620E+02
   4.660  0.1547E+01  0.1622E+02
   4.670  0.1545E+01  0.1623E+02
   4.680  0.1542E+01  0.1625E+02
   4.690  0.1539E+01  0.1627E+02
   4.700  0.1537E+01  0.1628E+02
   4.710  0.1534E+01  0.1630E+02
   4.720  0.1531E+01  0.1631E+02
   4.730  0.1528E+01  0.1633E+02
   4.740  0.1526E+01  0.1634E+02
   4.750  0.1523E+01  0.1636E+02
   4.760  0.1520E+01  0.1637E+02
   4.770  0.1518E+01  0.1639E+02
   4.780  0.1515E+01  0.1640E+02
   4.790  0.1512E+01  0.1642E+02
   4.800  0.1510E+01  0.1643E+02
   4.810  0.1507E+01  0.1645E+02
   4.820  0.1504E+01  0.1646E+02
   4.830  0.1501E+01  0.1648E+02
   4.840  0.1499E+01  0.1649E+02
   4.850  0.1496E+01  0.1651E+02
   4.860  0.1493E+01  0.1652E+02
   4.870  0.1490E+01  0.1654E+02
   4.880  0.1488E+01  0.1655E+02
   4.890  0.1485E+01  0.1657E+02
   4.900  0.1482E+01  0.1658E+02
   4.910  0.1479E+01  0.1660E+02
   4.920  0.1477E+01  0.1661E+02
   4.930  0.1474E+01  0.1663E+02
   4.940  0.1471E+01  0.1664E+02
   4.950  0.1468E+01  0.1666E+02
   4.960  0.1465E+01  0.1667E+02
   4.970  0.1462E+01  0.1668E+02
   4.980  0.1459E+01  0.1670E+02
   4.990  0.1456E+01  0.1671E+02
   5.000  0.1453E+01  0.1673E+02
   5.010  0.1450E+01  0.1674E+02
   5.020  0.1447E+01  0.1676E+02
   5.030  0.1444E+01  0.1677E+02
   5.040  0.1441E+01  0.1679E+02
   5.050  0.1437E+01  0.1680E+02
   5.060  0.1434E+01  0.1682E+02
   5.070  0.1431E+01  0.1683E+02
   5.080  0.1427E+01  0.1684E+02
   5.090  0.1424E+01  0.1686E+02
   5.100  0.1420E+01  0.1687E+02
   5.110  0.1416E+01  0.1689E+02
   5.120  0.1412E+01  0.1690E+02
   5.130  0.1408E+01  0.1691E+02
   5.140  0.1404E+01  0.1693E+02
   5.150  0.1400E+01  0.1694E+02
   5.160  0.1396E+01  0.1696E+02
   5.170  0.1392E+01  0.1697E+02
   5.180  0.1387E+01  0.1698E+02
   5.190  0.1382E+01  0.1700E+02
   5.200  0.1378E+01  0.1701E+02
   5.210  0.1373E+01  0.1703E+02
   5.220  0.1368E+01  0.1704E+02
   5.230  0.1362E+01  0.1705E+02
   5.240  0.1357E+01  0.1707E+02
   5.250  0.1351E+01  0.1708E+02
   5.260  0.1345E+01  0.1709E+02
   5.270  0.1339E+01  0.1711E+02
   5.280  0.1333E+01  0.1712E+02
   5.290  0.1326E+01  0.1713E+02
   5.300  0.1320E+01  0.1715E+02
   5.310  0.1313E+01  0.1716E+02
   5.320  0.1306E+01  0.1717E+02
   5.330  0.1298E+01  0.1719E+02
   5.340  0.1291E+01  0.1720E+02
   5.350  0.1283E+01  0.1721E+02
   5.360  0.1275E+01  0.1722E+02
   5.370  0.1266E+01  0.1724E+02
   5.380  0.1258E+01  0.1725E+02
   5.390  0.1249E+01  0.1726E+02
   5.400  0.1240E+01  0.1727E+02
   5.410  0.1231E+01  0.1729E+02
   5.420  0.1221E+01  0.1730E+02
   5.430  0.1211E+01  0.1731E+02
   5.440  0.1201E+01  0.1732E+02
   5.450  0.1191E+01  0.1734E+02
   5.460  0.1181E+01  0.1735E+02
   5.470  0.1170E+01  0.1736E+02
   5.480  0.1159E+01  0.1737E+02
   5.490  0.1148E+01  0.1738E+02
   5.500  0.1137E+01  0.1739E+02
   5.510  0.1126E+01  0.1740E+02
   5.520  0.1114E+01  0.1742E+02
   5.530  0.1102E+01  0.1743E+02
   5.540  0.1090E+01  0.1744E+02
   5.550  0.1078E+01  0.1745E+02
   5.560  0.1066E+01  0.1746E+02
   5.570  0.1054E+01  0.1747E+02
   5.580  0.1041E+01  0.1748E+02
   5.590  0.1029E+01  0.1749E+02
   5.600  0.1016E+01  0.1750E+02
   5.610  0.1004E+01  0.1751E+02
   5.620  0.9909E+00  0.1752E+02
   5.630  0.9781E+00  0.1753E+02
   5.640  0.9653E+00  0.1754E+02
   5.650  0.9524E+00  0.1755E+02
   5.660  0.9395E+00  0.1756E+02
   5.670  0.9266E+00  0.1757E+02
   5.680  0.9138E+00  0.1758E+02
   5.690  0.9009E+00  0.1759E+02
   5.700  0.8881E+00  0.1759E+02
   5.710  0.8752E+00  0.1760E+02
   5.720  0.8625E+00  0.1761E+02
   5.730  0.8498E+00  0.1762E+02
   5.740  0.8371E+00  0.1763E+02
   5.750  0.8245E+00  0.1764E+02
   5.760  0.8120E+00  0.1765E+02
   5.770  0.7995E+00  0.1765E+02
   5.780  0.7871E+00  0.1766E+02
   5.790  0.7749E+00  0.1767E+02
   5.800  0.7627E+00  0.1768E+02
   5.810  0.7506E+00  0.1768E+02
   5.820  0.7386E+00  0.1769E+02
   5.830  0.7268E+00  0.1770E+02
   5.840  0.7150E+00  0.1771E+02
   5.850  0.7034E+00  0.1771E+02
   5.860  0.6919E+00  0.1772E+02
   5.870  0.6805E+00  0.1773E+02
   5.880  0.6693E+00  0.1773E+02
   5.890  0.6581E+00  0.1774E+02
   5.900  0.6471E+00  0.1775E+02
   5.910  0.6362E+00  0.1775E+02
   5.920  0.6255E+00  0.1776E+02
   5.930  0.6148E+00  0.1777E+02
   5.940  0.6043E+00  0.1777E+02
   5.950  0.5939E+00  0.1778E+02
   5.960  0.5837E+00  0.1778E+02
   5.970  0.5735E+00  0.1779E+02
   5.980  0.5635E+00  0.1779E+02
   5.990  0.5536E+00  0.1780E+02
   6.000  0.5439E+00  0.1781E+02
   6.010  0.5342E+00  0.1781E+02
   6.020  0.5246E+00  0.1782E+02
   6.030  0.5152E+00  0.1782E+02
   6.040  0.5059E+00  0.1783E+02
   6.050  0.4966E+00  0.1783E+02
   6.060  0.4875E+00  0.1784E+02
   6.070  0.4785E+00  0.1784E+02
   6.080  0.4696E+00  0.1785E+02
   6.090  0.4607E+00  0.1785E+02
   6.100  0.4520E+00  0.1785E+02
   6.110  0.4433E+00  0.1786E+02
   6.120  0.4348E+00  0.1786E+02
   6.130  0.4263E+00  0.1787E+02
   6.140  0.4179E+00  0.1787E+02
   6.150  0.4095E+00  0.1788E+02
   6.160  0.4013E+00  0.1788E+02
   6.170  0.3931E+00  0.1788E+02
   6.180  0.3850E+00  0.1789E+02
   6.190  0.3769E+00  0.1789E+02
   6.200  0.3689E+00  0.1790E+02
   6.210  0.3610E+00  0.1790E+02
   6.220  0.3531E+00  0.1790E+02
   6.230  0.3453E+00  0.1791E+02
   6.240  0.3375E+00  0.1791E+02
   6.250  0.3298E+00  0.1791E+02
   6.260  0.3222E+00  0.1792E+02
   6.270  0.3146E+00  0.1792E+02
   6.280  0.3070E+00  0.1792E+02
   6.290  0.2995E+00  0.1792E+02
   6.300  0.2921E+00  0.1793E+02
   6.310  0.2847E+00  0.1793E+02
   6.320  0.2774E+00  0.1793E+02
   6.330  0.2701E+00  0.1794E+02
   6.340  0.2629E+00  0.1794E+02
   6.350  0.2557E+00  0.1794E+02
   6.360  0.2486E+00  0.1794E+02
   6.370  0.2416E+00  0.1795E+02
   6.380  0.2346E+00  0.1795E+02
   6.390  0.2277E+00  0.1795E+02
   6.400  0.2208E+00  0.1795E+02
   6.410  0.2140E+00  0.1796E+02
   6.420  0.2073E+00  0.1796E+02
   6.430  0.2007E+00  0.1796E+02
   6.440  0.1941E+00  0.1796E+02
   6.450  0.1877E+00  0.1796E+02
   6.460  0.1813E+00  0.1796E+02
   6.470  0.1750E+00  0.1797E+02
   6.480  0.1688E+00  0.1797E+02
   6.490  0.1627E+00  0.1797E+02
   6.500  0.1567E+00  0.1797E+02
   6.510  0.1507E+00  0.1797E+02
   6.520  0.1449E+00  0.1797E+02
   6.530  0.1392E+00  0.1798E+02
   6.540  0.1336E+00  0.1798E+02
   6.550  0.1282E+00  0.1798E+02
   6.560  0.1228E+00  0.1798E+02
   6.570  0.1176E+00  0.1798E+02
   6.580  0.1125E+00  0.1798E+02
   6.590  0.1075E+00  0.1798E+02
   6.600  0.1026E+00  0.1798E+02
   6.610  0.9785E-01  0.1799E+02
   6.620  0.9324E-01  0.1799E+02
   6.630  0.8876E-01  0.1799E+02
   6.640  0.8442E-01  0.1799E+02
   6.650  0.8021E-01  0.1799E+02
   6.660  0.7613E-01  0.1799E+02
   6.670  0.7219E-01  0.1799E+02
   6.680  0.6838E-01  0.1799E+02
   6.690  0.6472E-01  0.1799E+02
   6.700  0.6118E-01  0.1799E+02
   6.710  0.5778E-01  0.1799E+02
   6.720  0.5452E-01  0.1799E+02
   6.730  0.5139E-01  0.1799E+02
   6.740  0.4839E-01  0.1799E+02
   6.750  0.4553E-01  0.1799E+02
   6.760  0.4279E-01  0.1799E+02
   6.770  0.4018E-01  0.1800E+02
   6.780  0.3770E-01  0.1800E+02
   6.790  0.3534E-01  0.1800E+02
   6.800  0.3310E-01  0.1800E+02
   6.810  0.3098E-01  0.1800E+02
   6.820  0.2898E-01  0.1800E+02
   6.830  0.2709E-01  0.1800E+02
   6.840  0.2532E-01  0.1800E+02
   6.850  0.2365E-01  0.1800E+02
   6.860  0.2209E-01  0.1800E+02
   6.870  0.2063E-01  0.1800E+02
   6.880  0.1927E-01  0.1800E+02
   6.890  0.1801E-01  0.1800E+02
   6.900  0.1684E-01  0.1800E+02
   6.910  0.1577E-01  0.1800E+02
   6.920  0.1478E-01  0.1800E+02
   6.930  0.1388E-01  0.1800E+02
   6.940  0.1307E-01  0.1800E+02
   6.950  0.1233E-01  0.1800E+02
   6.960  0.1168E-01  0.1800E+02
   6.970  0.1109E-01  0.1800E+02
   6.980  0.1059E-01  0.1800E+02
   6.990  0.1015E-01  0.1800E+02
   7.000  0.9787E-02  0.1800E+02
   7.010  0.9488E-02  0.1800E+02
   7.020  0.9255E-02  0.1800E+02
   7.030  0.9086E-02  0.1800E+02
   7.040  0.8979E-02  0.1800E+02
   7.050  0.8933E-02  0.1800E+02
   7.060  0.8947E-02  0.1800E+02
   7.070  0.9020E-02  0.1800E+02
   7.080  0.9150E-02  0.1800E+02
   7.090  0.9337E-02  0.1800E+02
   7.100  0.9580E-02  0.1800E+02
   7.110  0.9879E-02  0.1800E+02
   7.120  0.1023E-01  0.1800E+02
   7.130  0.1064E-01  0.1800E+02
   7.140  0.1111E-01  0.1800E+02
   7.150  0.1162E-01  0.1800E+02
   7.160  0.1220E-01  0.1800E+02
   7.170  0.1283E-01  0.1800E+02
   7.180  0.1351E-01  0.1800E+02
   7.190  0.1425E-01  0.1800E+02
   7.200  0.1505E-01  0.1800E+02
   7.210  0.1591E-01  0.1800E+02
   7.220  0.1682E-01  0.1800E+02
   7.230  0.1779E-01  0.1800E+02
   7.240  0.1882E-01  0.1800E+02
   7.250  0.1992E-01  0.1800E+02
   7.260  0.2107E-01  0.1800E+02
   7.270  0.2229E-01  0.1800E+02
   7.280  0.2357E-01  0.1800E+02
   7.290  0.2492E-01  0.1800E+02
   7.300  0.2633E-01  0.1800E+02
   7.310  0.2781E-01  0.1800E+02
   7.320  0.2936E-01  0.1800E+02
   7.330  0.3098E-01  0.1801E+02
   7.340  0.3266E-01  0.1801E+02
   7.350  0.3443E-01  0.1801E+02
   7.360  0.3626E-01  0.1801E+02
   7.370  0.3817E-01  0.1801E+02
   7.380  0.4015E-01  0.1801E+02
   7.390  0.4221E-01  0.1801E+02
   7.400  0.4434E-01  0.1801E+02
   7.410  0.4655E-01  0.1801E+02
   7.420  0.4884E-01  0.1801E+02
   7.430  0.5121E-01  0.1801E+02
   7.440  0.5366E-01  0.1801E+02
   7.450  0.5619E-01  0.1801E+02
   7.460  0.5880E-01  0.1801E+02
   7.470  0.6148E-01  0.1801E+02
   7.480  0.6425E-01  0.1801E+02
   7.490  0.6711E-01  0.1801E+02
   7.500  0.7004E-01  0.1801E+02
   7.510  0.7305E-01  0.1801E+02
   7.520  0.7615E-01  0.1802E+02
   7.530  0.7933E-01  0.1802E+02
   7.540  0.8260E-01  0.1802E+02
   7.550  0.8594E-01  0.1802E+02
   7.560  0.8938E-01  0.1802E+02
   7.570  0.9289E-01  0.1802E+02
   7.580  0.9650E-01  0.1802E+02
   7.590  0.1002E+00  0.1802E+02
   7.600  0.1040E+00  0.1802E+02
   7.610  0.1078E+00  0.1802E+02
   7.620  0.1118E+00  0.1802E+02
   7.630  0.1158E+00  0.1803E+02
   7.640  0.1200E+00  0.1803E+02
   7.650  0.1242E+00  0.1803E+02
   7.660  0.1285E+00  0.1803E+02
   7.670  0.1330E+00  0.1803E+02
   7.680  0.1375E+00  0.1803E+02
   7.690  0.1421E+00  0.1803E+02
   7.700  0.1469E+00  0.1804E+02
   7.710  0.1517E+00  0.1804E+02
   7.720  0.1567E+00  0.1804E+02
   7.730  0.1617E+00  0.1804E+02
   7.740  0.1670E+00  0.1804E+02
   7.750  0.1723E+00  0.1804E+02
   7.760  0.1777E+00  0.1804E+02
   7.770  0.1833E+00  0.1805E+02
   7.780  0.1891E+00  0.1805E+02
   7.790  0.1949E+00  0.1805E+02
   7.800  0.2010E+00  0.1805E+02
   7.810  0.2071E+00  0.1805E+02
   7.820  0.2134E+00  0.1806E+02
   7.830  0.2199E+00  0.1806E+02
   7.840  0.2266E+00  0.1806E+02
   7.850  0.2334E+00  0.1806E+02
   7.860  0.2404E+00  0.1807E+02
   7.870  0.2476E+00  0.1807E+02
   7.880  0.2549E+00  0.1807E+02
   7.890  0.2625E+00  0.1807E+02
   7.900  0.2702E+00  0.1808E+02
   7.910  0.2781E+00  0.1808E+02
   7.920  0.2862E+00  0.1808E+02
   7.930  0.2945E+00  0.1808E+02
   7.940  0.3030E+00  0.1809E+02
   7.950  0.3117E+00  0.1809E+02
   7.960  0.3206E+00  0.1809E+02
   7.970  0.3297E+00  0.1810E+02
   7.980  0.3390E+00  0.1810E+02
   7.990  0.3485E+00  0.1810E+02
   8.000  0.3581E+00  0.1811E+02
   8.010  0.3680E+00  0.1811E+02
   8.020  0.3781E+00  0.1812E+02
   8.030  0.3883E+00  0.1812E+02
   8.040  0.3987E+00  0.1812E+02
   8.050  0.4094E+00  0.1813E+02
   8.060  0.4202E+00  0.1813E+02
   8.070  0.4311E+00  0.1814E+02
   8.080  0.4423E+00  0.1814E+02
   8.090  0.4536E+00  0.1814E+02
   8.100  0.4651E+00  0.1815E+02
   8.110  0.4767E+00  0.1815E+02
   8.120  0.4885E+00  0.1816E+02
   8.130  0.5004E+00  0.1816E+02
   8.140  0.5125E+00  0.1817E+02
   8.150  0.5247E+00  0.1817E+02
   8.160  0.5371E+00  0.1818E+02
   8.170  0.5496E+00  0.1819E+02
   8.180  0.5622E+00  0.1819E+02
   8.190  0.5750E+00  0.1820E+02
   8.200  0.5878E+00  0.1820E+02
   8.210  0.6008E+00  0.1821E+02
   8.220  0.6140E+00  0.1821E+02
   8.230  0.6272E+00  0.1822E+02
   8.240  0.6405E+00  0.1823E+02
   8.250  0.6540E+00  0.1823E+02
   8.260  0.6676E+00  0.1824E+02
   8.270  0.6813E+00  0.1825E+02
   8.280  0.6951E+00  0.1825E+02
   8.290  0.7090E+00  0.1826E+02
   8.300  0.7230E+00  0.1827E+02
   8.310  0.7371E+00  0.1828E+02
   8.320  0.7513E+00  0.1828E+02
   8.330  0.7656E+00  0.1829E+02
   8.340  0.7801E+00  0.1830E+02
   8.350  0.7946E+00  0.1831E+02
   8.360  0.8093E+00  0.1832E+02
   8.370  0.8241E+00  0.1832E+02
   8.380  0.8390E+00  0.1833E+02
   8.390  0.8540E+00  0.1834E+02
   8.400  0.8691E+00  0.1835E+02
   8.410  0.8844E+00  0.1836E+02
   8.420  0.8997E+00  0.1837E+02
   8.430  0.9152E+00  0.1838E+02
   8.440  0.9307E+00  0.1839E+02
   8.450  0.9464E+00  0.1839E+02
   8.460  0.9622E+00  0.1840E+02
   8.470  0.9781E+00  0.1841E+02
   8.480  0.9941E+00  0.1842E+02
   8.490  0.1010E+01  0.1843E+02
   8.500  0.1026E+01  0.1844E+02
   8.510  0.1043E+01  0.1846E+02
   8.520  0.1059E+01  0.1847E+02
   8.530  0.1076E+01  0.1848E+02
   8.540  0.1092E+01  0.1849E+02
   8.550  0.1109E+01  0.1850E+02
   8.560  0.1125E+01  0.1851E+02
   8.570  0.1142E+01  0.1852E+02
   8.580  0.1159E+01  0.1853E+02
   8.590  0.1175E+01  0.1854E+02
   8.600  0.1192E+01  0.1856E+02
   8.610  0.1209E+01  0.1857E+02
   8.620  0.1225E+01  0.1858E+02
   8.630  0.1242E+01  0.1859E+02
   8.640  0.1258E+01  0.1861E+02
   8.650  0.1275E+01  0.1862E+02
   8.660  0.1291E+01  0.1863E+02
   8.670  0.1307E+01  0.1864E+02
   8.680  0.1323E+01  0.1866E+02
   8.690  0.1339E+01  0.1867E+02
   8.700  0.1354E+01  0.1868E+02
   8.710  0.1370E+01  0.1870E+02
   8.720  0.1385E+01  0.1871E+02
   8.730  0.1399E+01  0.1873E+02
   8.740  0.1414E+01  0.1874E+02
   8.750  0.1428E+01  0.1875E+02
   8.760  0.1442E+01  0.1877E+02
   8.770  0.1455E+01  0.1878E+02
   8.780  0.1468E+01  0.1880E+02
   8.790  0.1480E+01  0.1881E+02
   8.800  0.1492E+01  0.1883E+02
   8.810  0.1504E+01  0.1884E+02
   8.820  0.1514E+01  0.1886E+02
   8.830  0.1525E+01  0.1887E+02
   8.840  0.1534E+01  0.1889E+02
   8.850  0.1543E+01  0.1890E+02
   8.860  0.1552E+01  0.1892E+02
   8.870  0.1559E+01  0.1894E+02
   8.880  0.1566E+01  0.1895E+02
   8.890  0.1573E+01  0.1897E+02
   8.900  0.1578E+01  0.1898E+02
   8.910  0.1583E+01  0.1900E+02
   8.920  0.1587E+01  0.1901E+02
   8.930  0.1590E+01  0.1903E+02
   8.940  0.1593E+01  0.1905E+02
   8.950  0.1595E+01  0.1906E+02
   8.960  0.1596E+01  0.1908E+02
   8.970  0.1596E+01  0.1909E+02
   8.980  0.1595E+01  0.1911E+02
   8.990  0.1594E+01  0.1913E+02
   9.000  0.1592E+01  0.1914E+02
   9.010  0.1589E+01  0.1916E+02
   9.020  0.1585E+01  0.1917E+02
   9.030  0.1581E+01  0.1919E+02
   9.040  0.1575E+01  0.1920E+02
   9.050  0.1570E+01  0.1922E+02
   9.060  0.1563E+01  0.1924E+02
   9.070  0.1556E+01  0.1925E+02
   9.080  0.1548E+01  0.1927E+02
   9.090  0.1540E+01  0.1928E+02
   9.100  0.1531E+01  0.1930E+02
   9.110  0.1521E+01  0.1931E+02
   9.120  0.1511E+01  0.1933E+02
   9.130  0.1500E+01  0.1934E+02
   9.140  0.1489E+01  0.1936E+02
   9.150  0.1478E+01  0.1937E+02
   9.160  0.1466E+01  0.1939E+02
   9.170  0.1454E+01  0.1940E+02
   9.180  0.1442E+01  0.1942E+02
   9.190  0.1429E+01  0.1943E+02
   9.200  0.1416E+01  0.1944E+02
   9.210  0.1403E+01  0.1946E+02
   9.220  0.1390E+01  0.1947E+02
   9.230  0.1377E+01  0.1949E+02
   9.240  0.1363E+01  0.1950E+02
   9.250  0.1350E+01  0.1951E+02
   9.260  0.1336E+01  0.1953E+02
   9.270  0.1323E+01  0.1954E+02
   9.280  0.1310E+01  0.1955E+02
   9.290  0.1297E+01  0.1957E+02
   9.300  0.1283E+01  0.1958E+02
   9.310  0.1270E+01  0.1959E+02
   9.320  0.1258E+01  0.1960E+02
   9.330  0.1245E+01  0.1962E+02
   9.340  0.1233E+01  0.1963E+02
   9.350  0.1221E+01  0.1964E+02
   9.360  0.1209E+01  0.1965E+02
   9.370  0.1197E+01  0.1967E+02
   9.380  0.1186E+01  0.1968E+02
   9.390  0.1175E+01  0.1969E+02
   9.400  0.1165E+01  0.1970E+02
   9.410  0.1154E+01  0.1971E+02
   9.420  0.1144E+01  0.1972E+02
   9.430  0.1135E+01  0.1974E+02
   9.440  0.1125E+01  0.1975E+02
   9.450  0.1117E+01  0.1976E+02
   9.460  0.1108E+01  0.1977E+02
   9.470  0.1100E+01  0.1978E+02
   9.480  0.1092E+01  0.1979E+02
   9.490  0.1084E+01  0.1980E+02
   9.500  0.1077E+01  0.1981E+02
   9.510  0.1070E+01  0.1982E+02
   9.520  0.1063E+01  0.1983E+02
   9.530  0.1057E+01  0.1984E+02
   9.540  0.1051E+01  0.1985E+02
   9.550  0.1045E+01  0.1987E+02
   9.560  0.1040E+01  0.1988E+02
   9.570  0.1035E+01  0.1989E+02
   9.580  0.1030E+01  0.1990E+02
   9.590  0.1025E+01  0.1991E+02
   9.600  0.1020E+01  0.1992E+02
   9.610  0.1016E+01  0.1993E+02
   9.620  0.1011E+01  0.1994E+02
   9.630  0.1007E+01  0.1995E+02
   9.640  0.1003E+01  0.1996E+02
   9.650  0.9991E+00  0.1997E+02
   9.660  0.9952E+00  0.1998E+02
   9.670  0.9914E+00  0.1999E+02
   9.680  0.9876E+00  0.2000E+02
   9.690  0.9839E+00  0.2001E+02
   9.700  0.9802E+00  0.2002E+02
   9.710  0.9765E+00  0.2003E+02
   9.720  0.9728E+00  0.2004E+02
   9.730  0.9691E+00  0.2005E+02
   9.740  0.9654E+00  0.2006E+02
   9.750  0.9616E+00  0.2006E+02
   9.760  0.9577E+00  0.2007E+02
   9.770  0.9539E+00  0.2008E+02
   9.780  0.9499E+00  0.2009E+02
   9.790  0.9459E+00  0.2010E+02
   9.800  0.9418E+00  0.2011E+02
   9.810  0.9377E+00  0.2012E+02
   9.820  0.9334E+00  0.2013E+02
   9.830  0.9291E+00  0.2014E+02
   9.840  0.9248E+00  0.2015E+02
   9.850  0.9203E+00  0.2016E+02
   9.860  0.9159E+00  0.2017E+02
   9.870  0.9114E+00  0.2018E+02
   9.880  0.9068E+00  0.2019E+02
   9.890  0.9022E+00  0.2020E+02
   9.900  0.8976E+00  0.2020E+02
   9.910  0.8930E+00  0.2021E+02
   9.920  0.8884E+00  0.2022E+02
   9.930  0.8838E+00  0.2023E+02
   9.940  0.8793E+00  0.2024E+02
   9.950  0.8748E+00  0.2025E+02
   9.960  0.8704E+00  0.2026E+02
   9.970  0.8661E+00  0.2027E+02
   9.980  0.8619E+00  0.2027E+02
   9.990  0.8578E+00  0.2028E+02
  10.000  0.8539E+00  0.2029E+02
  10.010  0.8502E+00  0.2030E+02
  10.020  0.8466E+00  0.2031E+02
  10.030  0.8432E+00  0.2032E+02
  10.040  0.8401E+00  0.2033E+02
  10.050  0.8372E+00  0.2033E+02
  10.060  0.8346E+00  0.2034E+02
  10.070  0.8322E+00  0.2035E+02
  10.080  0.8301E+00  0.2036E+02
  10.090  0.8284E+00  0.2037E+02
  10.100  0.8269E+00  0.2038E+02
  10.110  0.8258E+00  0.2038E+02
  10.120  0.8250E+00  0.2039E+02
  10.130  0.8246E+00  0.2040E+02
  10.140  0.8246E+00  0.2041E+02
  10.150  0.8249E+00  0.2042E+02
  10.160  0.8256E+00  0.2042E+02
  10.170  0.8267E+00  0.2043E+02
  10.180  0.8281E+00  0.2044E+02
  10.190  0.8300E+00  0.2045E+02
  10.200  0.8323E+00  0.2046E+02
  10.210  0.8349E+00  0.2047E+02
  10.220  0.8379E+00  0.2047E+02
  10.230  0.8414E+00  0.2048E+02
  10.240  0.8452E+00  0.2049E+02
  10.250  0.8493E+00  0.2050E+02
  10.260  0.8539E+00  0.2051E+02
  10.270  0.8588E+00  0.2052E+02
  10.280  0.8640E+00  0.2053E+02
  10.290  0.8696E+00  0.2053E+02
  10.300  0.8756E+00  0.2054E+02
  10.310  0.8818E+00  0.2055E+02
  10.320  0.8884E+00  0.2056E+02
  10.330  0.8953E+00  0.2057E+02
  10.340  0.9025E+00  0.2058E+02
  10.350  0.9099E+00  0.2059E+02
  10.360  0.9176E+00  0.2060E+02
  10.370  0.9256E+00  0.2061E+02
  10.380  0.9338E+00  0.2062E+02
  10.390  0.9422E+00  0.2062E+02
  10.400  0.9509E+00  0.2063E+02
  10.410  0.9597E+00  0.2064E+02
  10.420  0.9688E+00  0.2065E+02
  10.430  0.9781E+00  0.2066E+02
  10.440  0.9875E+00  0.2067E+02
  10.450  0.9972E+00  0.2068E+02
  10.460  0.1007E+01  0.2069E+02
  10.470  0.1017E+01  0.2070E+02
  10.480  0.1027E+01  0.2071E+02
  10.490  0.1037E+01  0.2072E+02
  10.500  0.1048E+01  0.2073E+02
  10.510  0.1059E+01  0.2075E+02
  10.520  0.1069E+01  0.2076E+02
  10.530  0.1080E+01  0.2077E+02
  10.540  0.1091E+01  0.2078E+02
  10.550  0.1103E+01  0.2079E+02
  10.560  0.1114E+01  0.2080E+02
  10.570  0.1126E+01  0.2081E+02
  10.580  0.1137E+01  0.2082E+02
  10.590  0.1149E+01  0.2083E+02
  10.600  0.1161E+01  0.2085E+02
  10.610  0.1173E+01  0.2086E+02
  10.620  0.1185E+01  0.2087E+02
  10.630  0.1198E+01  0.2088E+02
  10.640  0.1210E+01  0.2089E+02
  10.650  0.1223E+01  0.2091E+02
  10.660  0.1236E+01  0.2092E+02
  10.670  0.1248E+01  0.2093E+02
  10.680  0.1261E+01  0.2094E+02
  10.690  0.1274E+01  0.2096E+02
  10.700  0.1288E+01  0.2097E+02
  10.710  0.1301E+01  0.2098E+02
  10.720  0.1314E+01  0.2099E+02
  10.730  0.1327E+01  0.2101E+02
  10.740  0.1340E+01  0.2102E+02
  10.750  0.1353E+01  0.2104E+02
  10.760  0.1367E+01  0.2105E+02
  10.770  0.1380E+01  0.2106E+02
  10.780  0.1393E+01  0.2108E+02
  10.790  0.1406E+01  0.2109E+02
  10.800  0.1418E+01  0.2110E+02
  10.810  0.1431E+01  0.2112E+02
  10.820  0.1443E+01  0.2113E+02
  10.830  0.1455E+01  0.2115E+02
  10.840  0.1467E+01  0.2116E+02
  10.850  0.1479E+01  0.2118E+02
  10.860  0.1490E+01  0.2119E+02
  10.870  0.1501E+01  0.2121E+02
  10.880  0.1511E+01  0.2122E+02
  10.890  0.1521E+01  0.2124E+02
  10.900  0.1531E+01  0.2125E+02
  10.910  0.1540E+01  0.2127E+02
  10.920  0.1549E+01  0.2128E+02
  10.930  0.1557E+01  0.2130E+02
  10.940  0.1564E+01  0.2132E+02
  10.950  0.1571E+01  0.2133E+02
  10.960  0.1577E+01  0.2135E+02
  10.970  0.1583E+01  0.2136E+02
  10.980  0.1588E+01  0.2138E+02
  10.990  0.1592E+01  0.2139E+02
  11.000  0.1596E+01  0.2141E+02
  11.010  0.1599E+01  0.2143E+02
  11.020  0.1601E+01  0.2144E+02
  11.030  0.1603E+01  0.2146E+02
  11.040  0.1604E+01  0.2147E+02
  11.050  0.1604E+01  0.2149E+02
  11.060  0.1603E+01  0.2151E+02
  11.070  0.1602E+01  0.2152E+02
  11.080  0.1600E+01  0.2154E+02
  11.090  0.1598E+01  0.2155E+02
  11.100  0.1594E+01  0.2157E+02
  11.110  0.1590E+01  0.2159E+02
  11.120  0.1586E+01  0.2160E+02
  11.130  0.1580E+01  0.2162E+02
  11.140  0.1575E+01  0.2163E+02
  11.150  0.1568E+01  0.2165E+02
  11.160  0.1561E+01  0.2166E+02
  11.170  0.1554E+01  0.2168E+02
  11.180  0.1546E+01  0.2170E+02
  11.190  0.1537E+01  0.2171E+02
  11.200  0.1528E+01  0.2173E+02
  11.210  0.1519E+01  0.2174E+02
  11.220  0.1510E+01  0.2176E+02
  11.230  0.1500E+01  0.2177E+02
  11.240  0.1490E+01  0.2179E+02
  11.250  0.1479E+01  0.2180E+02
  11.260  0.1469E+01  0.2182E+02
  11.270  0.1458E+01  0.2183E+02
  11.280  0.1448E+01  0.2185E+02
  11.290  0.1437E+01  0.2186E+02
  11.300  0.1426E+01  0.2187E+02
  11.310  0.1416E+01  0.2189E+02
  11.320  0.1405E+01  0.2190E+02
  11.330  0.1395E+01  0.2192E+02
  11.340  0.1385E+01  0.2193E+02
  11.350  0.1375E+01  0.2194E+02
  11.360  0.1365E+01  0.2196E+02
  11.370  0.1356E+01  0.2197E+02
  11.380  0.1347E+01  0.2198E+02
  11.390  0.1338E+01  0.2200E+02
  11.400  0.1330E+01  0.2201E+02
  11.410  0.1322E+01  0.2202E+02
  11.420  0.1315E+01  0.2204E+02
  11.430  0.1308E+01  0.2205E+02
  11.440  0.1302E+01  0.2206E+02
  11.450  0.1296E+01  0.2208E+02
  11.460  0.1291E+01  0.2209E+02
  11.470  0.1287E+01  0.2210E+02
  11.480  0.1283E+01  0.2211E+02
  11.490  0.1280E+01  0.2213E+02
  11.500  0.1277E+01  0.2214E+02
  11.510  0.1276E+01  0.2215E+02
  11.520  0.1274E+01  0.2217E+02
  11.530  0.1274E+01  0.2218E+02
  11.540  0.1274E+01  0.2219E+02
  11.550  0.1275E+01  0.2220E+02
  11.560  0.1277E+01  0.2222E+02
  11.570  0.1279E+01  0.2223E+02
  11.580  0.1282E+01  0.2224E+02
  11.590  0.1285E+01  0.2226E+02
  11.600  0.1289E+01  0.2227E+02
  11.610  0.1294E+01  0.2228E+02
  11.620  0.1299E+01  0.2229E+02
  11.630  0.1305E+01  0.2231E+02
  11.640  0.1312E+01  0.2232E+02
  11.650  0.1318E+01  0.2233E+02
  11.660  0.1326E+01  0.2235E+02
  11.670  0.1334E+01  0.2236E+02
  11.680  0.1342E+01  0.2237E+02
  11.690  0.1350E+01  0.2239E+02
  11.700  0.1359E+01  0.2240E+02
  11.710  0.1369E+01  0.2241E+02
  11.720  0.1378E+01  0.2243E+02
  11.730  0.1388E+01  0.2244E+02
  11.740  0.1398E+01  0.2246E+02
  11.750  0.1408E+01  0.2247E+02
  11.760  0.1418E+01  0.2248E+02
  11.770  0.1428E+01  0.2250E+02
  11.780  0.1439E+01  0.2251E+02
  11.790  0.1449E+01  0.2253E+02
  11.800  0.1459E+01  0.2254E+02
  11.810  0.1469E+01  0.2256E+02
  11.820  0.1479E+01  0.2257E+02
  11.830  0.1489E+01  0.2259E+02
  11.840  0.1499E+01  0.2260E+02
  11.850  0.1508E+01  0.2262E+02
  11.860  0.1518E+01  0.2263E+02
  11.870  0.1526E+01  0.2265E+02
  11.880  0.1535E+01  0.2266E+02
  11.890  0.1543E+01  0.2268E+02
  11.900  0.1551E+01  0.2269E+02
  11.910  0.1559E+01  0.2271E+02
  11.920  0.1566E+01  0.2272E+02
  11.930  0.1572E+01  0.2274E+02
  11.940  0.1579E+01  0.2276E+02
  11.950  0.1584E+01  0.2277E+02
  11.960  0.1590E+01  0.2279E+02
  11.970  0.1594E+01  0.2280E+02
  11.980  0.1599E+01  0.2282E+02
  11.990  0.1602E+01  0.2284E+02
  12.000  0.1606E+01  0.2285E+02
  12.010  0.1608E+01  0.2287E+02
  12.020  0.1610E+01  0.2288E+02
  12.030  0.1612E+01  0.2290E+02
  12.040  0.1613E+01  0.2292E+02
  12.050  0.1614E+01  0.2293E+02
  12.060  0.1614E+01  0.2295E+02
  12.070  0.1614E+01  0.2296E+02
  12.080  0.1613E+01  0.2298E+02
  12.090  0.1612E+01  0.2300E+02
  12.100  0.1610E+01  0.2301E+02
  12.110  0.1608E+01  0.2303E+02
  12.120  0.1605E+01  0.2305E+02
  12.130  0.1602E+01  0.2306E+02
  12.140  0.1598E+01  0.2308E+02
  12.150  0.1595E+01  0.2309E+02
  12.160  0.1590E+01  0.2311E+02
  12.170  0.1586E+01  0.2312E+02
  12.180  0.1580E+01  0.2314E+02
  12.190  0.1575E+01  0.2316E+02
  12.200  0.1569E+01  0.2317E+02
  12.210  0.1563E+01  0.2319E+02
  12.220  0.1557E+01  0.2320E+02
  12.230  0.1550E+01  0.2322E+02
  12.240  0.1544E+01  0.2323E+02
  12.250  0.1537E+01  0.2325E+02
  12.260  0.1529E+01  0.2326E+02
  12.270  0.1522E+01  0.2328E+02
  12.280  0.1514E+01  0.2330E+02
  12.290  0.1506E+01  0.2331E+02
  12.300  0.1498E+01  0.2333E+02
  12.310  0.1490E+01  0.2334E+02
  12.320  0.1482E+01  0.2335E+02
  12.330  0.1473E+01  0.2337E+02
  12.340  0.1465E+01  0.2338E+02
  12.350  0.1456E+01  0.2340E+02
  12.360  0.1447E+01  0.2341E+02
  12.370  0.1438E+01  0.2343E+02
  12.380  0.1429E+01  0.2344E+02
  12.390  0.1421E+01  0.2346E+02
  12.400  0.1412E+01  0.2347E+02
  12.410  0.1403E+01  0.2348E+02
  12.420  0.1394E+01  0.2350E+02
  12.430  0.1385E+01  0.2351E+02
  12.440  0.1376E+01  0.2353E+02
  12.450  0.1367E+01  0.2354E+02
  12.460  0.1358E+01  0.2355E+02
  12.470  0.1349E+01  0.2357E+02
  12.480  0.1340E+01  0.2358E+02
  12.490  0.1331E+01  0.2359E+02
  12.500  0.1322E+01  0.2361E+02
  12.510  0.1314E+01  0.2362E+02
  12.520  0.1305E+01  0.2363E+02
  12.530  0.1296E+01  0.2365E+02
  12.540  0.1288E+01  0.2366E+02
  12.550  0.1279E+01  0.2367E+02
  12.560  0.1271E+01  0.2368E+02
  12.570  0.1262E+01  0.2370E+02
  12.580  0.1254E+01  0.2371E+02
  12.590  0.1245E+01  0.2372E+02
  12.600  0.1237E+01  0.2373E+02
  12.610  0.1228E+01  0.2375E+02
  12.620  0.1220E+01  0.2376E+02
  12.630  0.1212E+01  0.2377E+02
  12.640  0.1204E+01  0.2378E+02
  12.650  0.1196E+01  0.2379E+02
  12.660  0.1187E+01  0.2381E+02
  12.670  0.1179E+01  0.2382E+02
  12.680  0.1171E+01  0.2383E+02
  12.690  0.1163E+01  0.2384E+02
  12.700  0.1155E+01  0.2385E+02
  12.710  0.1147E+01  0.2386E+02
  12.720  0.1139E+01  0.2388E+02
  12.730  0.1132E+01  0.2389E+02
  12.740  0.1124E+01  0.2390E+02
  12.750  0.1116E+01  0.2391E+02
  12.760  0.1108E+01  0.2392E+02
  12.770  0.1100E+01  0.2393E+02
  12.780  0.1093E+01  0.2394E+02
  12.790  0.1085E+01  0.2395E+02
  12.800  0.1078E+01  0.2396E+02
  12.810  0.1070E+01  0.2398E+02
  12.820  0.1063E+01  0.2399E+02
  12.830  0.1056E+01  0.2400E+02
  12.840  0.1049E+01  0.2401E+02
  12.850  0.1042E+01  0.2402E+02
  12.860  0.1035E+01  0.2403E+02
  12.870  0.1028E+01  0.2404E+02
  12.880  0.1022E+01  0.2405E+02
  12.890  0.1016E+01  0.2406E+02
  12.900  0.1009E+01  0.2407E+02
  12.910  0.1003E+01  0.2408E+02
  12.920  0.9976E+00  0.2409E+02
  12.930  0.9921E+00  0.2410E+02
  12.940  0.9867E+00  0.2411E+02
  12.950  0.9816E+00  0.2412E+02
  12.960  0.9768E+00  0.2413E+02
  12.970  0.9722E+00  0.2414E+02
  12.980  0.9678E+00  0.2415E+02
  12.990  0.9637E+00  0.2416E+02
  13.000  0.9598E+00  0.2417E+02
  13.010  0.9562E+00  0.2418E+02
  13.020  0.9528E+00  0.2419E+02
  13.030  0.9498E+00  0.2420E+02
  13.040  0.9469E+00  0.2420E+02
  13.050  0.9443E+00  0.2421E+02
  13.060  0.9420E+00  0.2422E+02
  13.070  0.9399E+00  0.2423E+02
  13.080  0.9380E+00  0.2424E+02
  13.090  0.9363E+00  0.2425E+02
  13.100  0.9349E+00  0.2426E+02
  13.110  0.9336E+00  0.2427E+02
  13.120  0.9325E+00  0.2428E+02
  13.130  0.9316E+00  0.2429E+02
  13.140  0.9308E+00  0.2430E+02
  13.150  0.9302E+00  0.2431E+02
  13.160  0.9297E+00  0.2432E+02
  13.170  0.9293E+00  0.2433E+02
  13.180  0.9290E+00  0.2434E+02
  13.190  0.9288E+00  0.2434E+02
  13.200  0.9286E+00  0.2435E+02
  13.210  0.9285E+00  0.2436E+02
  13.220  0.9284E+00  0.2437E+02
  13.230  0.9283E+00  0.2438E+02
  13.240  0.9282E+00  0.2439E+02
  13.250  0.9282E+00  0.2440E+02
  13.260  0.9281E+00  0.2441E+02
  13.270  0.9280E+00  0.2442E+02
  13.280  0.9279E+00  0.2443E+02
  13.290  0.9277E+00  0.2444E+02
  13.300  0.9275E+00  0.2445E+02
  13.310  0.9273E+00  0.2446E+02
  13.320  0.9271E+00  0.2447E+02
  13.330  0.9268E+00  0.2447E+02
  13.340  0.9265E+00  0.2448E+02
  13.350  0.9262E+00  0.2449E+02
  13.360  0.9259E+00  0.2450E+02
  13.370  0.9256E+00  0.2451E+02
  13.380  0.9253E+00  0.2452E+02
  13.390  0.9250E+00  0.2453E+02
  13.400  0.9248E+00  0.2454E+02
  13.410  0.9247E+00  0.2455E+02
  13.420  0.9246E+00  0.2456E+02
  13.430  0.9246E+00  0.2457E+02
  13.440  0.9248E+00  0.2458E+02
  13.450  0.9250E+00  0.2459E+02
  13.460  0.9255E+00  0.2459E+02
  13.470  0.9260E+00  0.2460E+02
  13.480  0.9268E+00  0.2461E+02
  13.490  0.9278E+00  0.2462E+02
  13.500  0.9290E+00  0.2463E+02
  13.510  0.9304E+00  0.2464E+02
  13.520  0.9321E+00  0.2465E+02
  13.530  0.9340E+00  0.2466E+02
  13.540  0.9362E+00  0.2467E+02
  13.550  0.9387E+00  0.2468E+02
  13.560  0.9415E+00  0.2469E+02
  13.570  0.9445E+00  0.2470E+02
  13.580  0.9479E+00  0.2471E+02
  13.590  0.9515E+00  0.2472E+02
  13.600  0.9554E+00  0.2473E+02
  13.610  0.9596E+00  0.2474E+02
  13.620  0.9641E+00  0.2475E+02
  13.630  0.9688E+00  0.2475E+02
  13.640  0.9738E+00  0.2476E+02
  13.650  0.9789E+00  0.2477E+02
  13.660  0.9843E+00  0.2478E+02
  13.670  0.9899E+00  0.2479E+02
  13.680  0.9956E+00  0.2480E+02
  13.690  0.1001E+01  0.2481E+02
  13.700  0.1007E+01  0.2482E+02
  13.710  0.1014E+01  0.2483E+02
  13.720  0.1020E+01  0.2484E+02
  13.730  0.1026E+01  0.2485E+02
  13.740  0.1032E+01  0.2487E+02
  13.750  0.1038E+01  0.2488E+02
  13.760  0.1044E+01  0.2489E+02
  13.770  0.1050E+01  0.2490E+02
  13.780  0.1055E+01  0.2491E+02
  13.790  0.1061E+01  0.2492E+02
  13.800  0.1066E+01  0.2493E+02
  13.810  0.1071E+01  0.2494E+02
  13.820  0.1076E+01  0.2495E+02
  13.830  0.1080E+01  0.2496E+02
  13.840  0.1084E+01  0.2497E+02
  13.850  0.1088E+01  0.2498E+02
  13.860  0.1091E+01  0.2499E+02
  13.870  0.1093E+01  0.2500E+02
  13.880  0.1096E+01  0.2502E+02
  13.890  0.1098E+01  0.2503E+02
  13.900  0.1099E+01  0.2504E+02
  13.910  0.1100E+01  0.2505E+02
  13.920  0.1100E+01  0.2506E+02
  13.930  0.1100E+01  0.2507E+02
  13.940  0.1099E+01  0.2508E+02
  13.950  0.1098E+01  0.2509E+02
  13.960  0.1096E+01  0.2510E+02
  13.970  0.1094E+01  0.2511E+02
  13.980  0.1091E+01  0.2512E+02
  13.990  0.1088E+01  0.2514E+02
  14.000  0.1084E+01  0.2515E+02
  14.010  0.1079E+01  0.2516E+02
  14.020  0.1074E+01  0.2517E+02
  14.030  0.1069E+01  0.2518E+02
  14.040  0.1063E+01  0.2519E+02
  14.050  0.1057E+01  0.2520E+02
  14.060  0.1050E+01  0.2521E+02
  14.070  0.1043E+01  0.2522E+02
  14.080  0.1036E+01  0.2523E+02
  14.090  0.1028E+01  0.2524E+02
  14.100  0.1020E+01  0.2525E+02
  14.110  0.1011E+01  0.2526E+02
  14.120  0.1002E+01  0.2527E+02
  14.130  0.9934E+00  0.2528E+02
  14.140  0.9842E+00  0.2529E+02
  14.150  0.9747E+00  0.2530E+02
  14.160  0.9650E+00  0.2531E+02
  14.170  0.9552E+00  0.2532E+02
  14.180  0.9452E+00  0.2533E+02
  14.190  0.9351E+00  0.2534E+02
  14.200  0.9248E+00  0.2535E+02
  14.210  0.9145E+00  0.2536E+02
  14.220  0.9041E+00  0.2537E+02
  14.230  0.8937E+00  0.2538E+02
  14.240  0.8832E+00  0.2538E+02
  14.250  0.8726E+00  0.2539E+02
  14.260  0.8621E+00  0.2540E+02
  14.270  0.8516E+00  0.2541E+02
  14.280  0.8411E+00  0.2542E+02
  14.290  0.8306E+00  0.2543E+02
  14.300  0.8201E+00  0.2544E+02
  14.310  0.8097E+00  0.2544E+02
  14.320  0.7994E+00  0.2545E+02
  14.330  0.7891E+00  0.2546E+02
  14.340  0.7789E+00  0.2547E+02
  14.350  0.7687E+00  0.2547E+02
  14.360  0.7586E+00  0.2548E+02
  14.370  0.7486E+00  0.2549E+02
  14.380  0.7387E+00  0.2550E+02
  14.390  0.7289E+00  0.2550E+02
  14.400  0.7192E+00  0.2551E+02
  14.410  0.7095E+00  0.2552E+02
  14.420  0.7000E+00  0.2553E+02
  14.430  0.6906E+00  0.2553E+02
  14.440  0.6812E+00  0.2554E+02
  14.450  0.6720E+00  0.2555E+02
  14.460  0.6629E+00  0.2555E+02
  14.470  0.6538E+00  0.2556E+02
  14.480  0.6449E+00  0.2557E+02
  14.490  0.6361E+00  0.2557E+02
  14.500  0.6274E+00  0.2558E+02
  14.510  0.6188E+00  0.2558E+02
  14.520  0.6103E+00  0.2559E+02
  14.530  0.6019E+00  0.2560E+02
  14.540  0.5937E+00  0.2560E+02
  14.550  0.5855E+00  0.2561E+02
  14.560  0.5774E+00  0.2561E+02
  14.570  0.5695E+00  0.2562E+02
  14.580  0.5616E+00  0.2563E+02
  14.590  0.5538E+00  0.2563E+02
  14.600  0.5462E+00  0.2564E+02
  14.610  0.5386E+00  0.2564E+02
  14.620  0.5311E+00  0.2565E+02
  14.630  0.5237E+00  0.2565E+02
  14.640  0.5164E+00  0.2566E+02
  14.650  0.5092E+00  0.2566E+02
  14.660  0.5021E+00  0.2567E+02
  14.670  0.4951E+00  0.2567E+02
  14.680  0.4881E+00  0.2568E+02
  14.690  0.4812E+00  0.2568E+02
  14.700  0.4744E+00  0.2569E+02
  14.710  0.4677E+00  0.2569E+02
  14.720  0.4610E+00  0.2570E+02
  14.730  0.4544E+00  0.2570E+02
  14.740  0.4479E+00  0.2571E+02
  14.750  0.4415E+00  0.2571E+02
  14.760  0.4351E+00  0.2571E+02
  14.770  0.4288E+00  0.2572E+02
  14.780  0.4225E+00  0.2572E+02
  14.790  0.4163E+00  0.2573E+02
  14.800  0.4102E+00  0.2573E+02
  14.810  0.4041E+00  0.2574E+02
  14.820  0.3981E+00  0.2574E+02
  14.830  0.3922E+00  0.2574E+02
  14.840  0.3863E+00  0.2575E+02
  14.850  0.3805E+00  0.2575E+02
  14.860  0.3747E+00  0.2575E+02
  14.870  0.3691E+00  0.2576E+02
  14.880  0.3635E+00  0.2576E+02
  14.890  0.3580E+00  0.2577E+02
  14.900  0.3525E+00  0.2577E+02
  14.910  0.3472E+00  0.2577E+02
  14.920  0.3419E+00  0.2578E+02
  14.930  0.3368E+00  0.2578E+02
  14.940  0.3317E+00  0.2578E+02
  14.950  0.3267E+00  0.2579E+02
  14.960  0.3218E+00  0.2579E+02
  14.970  0.3171E+00  0.2579E+02
  14.980  0.3124E+00  0.2580E+02
  14.990  0.3079E+00  0.2580E+02
  15.000  0.3034E+00  0.2580E+02
  15.010  0.2991E+00  0.2580E+02
  15.020  0.2949E+00  0.2581E+02
  15.030  0.2908E+00  0.2581E+02
  15.040  0.2868E+00  0.2581E+02
  15.050  0.2830E+00  0.2582E+02
  15.060  0.2792E+00  0.2582E+02
  15.070  0.2756E+00  0.2582E+02
  15.080  0.2722E+00  0.2582E+02
  15.090  0.2688E+00  0.2583E+02
  15.100  0.2656E+00  0.2583E+02
  15.110  0.2624E+00  0.2583E+02
  15.120  0.2594E+00  0.2583E+02
  15.130  0.2565E+00  0.2584E+02
  15.140  0.2537E+00  0.2584E+02
  15.150  0.2510E+00  0.2584E+02
  15.160  0.2484E+00  0.2584E+02
  15.170  0.2459E+00  0.2585E+02
  15.180  0.2435E+00  0.2585E+02
  15.190  0.2412E+00  0.2585E+02
  15.200  0.2390E+00  0.2585E+02
  15.210  0.2368E+00  0.2586E+02
  15.220  0.2347E+00  0.2586E+02
  15.230  0.2326E+00  0.2586E+02
  15.240  0.2306E+00  0.2586E+02
  15.250  0.2287E+00  0.2587E+02
  15.260  0.2267E+00  0.2587E+02
  15.270  0.2248E+00  0.2587E+02
  15.280  0.2230E+00  0.2587E+02
  15.290  0.2211E+00  0.2588E+02
  15.300  0.2193E+00  0.2588E+02
  15.310  0.2175E+00  0.2588E+02
  15.320  0.2157E+00  0.2588E+02
  15.330  0.2139E+00  0.2588E+02
  15.340  0.2120E+00  0.2589E+02
  15.350  0.2102E+00  0.2589E+02
  15.360  0.2083E+00  0.2589E+02
  15.370  0.2065E+00  0.2589E+02
  15.380  0.2046E+00  0.2589E+02
  15.390  0.2026E+00  0.2590E+02
  15.400  0.2007E+00  0.2590E+02
  15.410  0.1987E+00  0.2590E+02
  15.420  0.1967E+00  0.2590E+02
  15.430  0.1946E+00  0.2590E+02
  15.440  0.1925E+00  0.2591E+02
  15.450  0.1904E+00  0.2591E+02
  15.460  0.1883E+00  0.2591E+02
  15.470  0.1861E+00  0.2591E+02
  15.480  0.1839E+00  0.2591E+02
  15.490  0.1816E+00  0.2592E+02
  15.500  0.1793E+00  0.2592E+02
  15.510  0.1770E+00  0.2592E+02
  15.520  0.1747E+00  0.2592E+02
  15.530  0.1724E+00  0.2592E+02
  15.540  0.1700E+00  0.2592E+02
  15.550  0.1676E+00  0.2593E+02
  15.560  0.1652E+00  0.2593E+02
  15.570  0.1628E+00  0.2593E+02
  15.580  0.1604E+00  0.2593E+02
  15.590  0.1580E+00  0.2593E+02
  15.600  0.1555E+00  0.2593E+02
  15.610  0.1531E+00  0.2594E+02
  15.620  0.1507E+00  0.2594E+02
  15.630  0.1483E+00  0.2594E+02
  15.640  0.1459E+00  0.2594E+02
  15.650  0.1435E+00  0.2594E+02
  15.660  0.1412E+00  0.2594E+02
  15.670  0.1388E+00  0.2594E+02
  15.680  0.1365E+00  0.2595E+02
  15.690  0.1342E+00  0.2595E+02
  15.700  0.1319E+00  0.2595E+02
  15.710  0.1297E+00  0.2595E+02
  15.720  0.1275E+00  0.2595E+02
  15.730  0.1253E+00  0.2595E+02
  15.740  0.1231E+00  0.2595E+02
  15.750  0.1210E+00  0.2595E+02
  15.760  0.1189E+00  0.2596E+02
  15.770  0.1169E+00  0.2596E+02
  15.780  0.1149E+00  0.2596E+02
  15.790  0.1129E+00  0.2596E+02
  15.800  0.1109E+00  0.2596E+02
  15.810  0.1090E+00  0.2596E+02
  15.820  0.1072E+00  0.2596E+02
  15.830  0.1053E+00  0.2596E+02
  15.840  0.1035E+00  0.2596E+02
  15.850  0.1017E+00  0.2597E+02
  15.860  0.9995E-01  0.2597E+02
  15.870  0.9823E-01  0.2597E+02
  15.880  0.9652E-01  0.2597E+02
  15.890  0.9485E-01  0.2597E+02
  15.900  0.9319E-01  0.2597E+02
  15.910  0.9155E-01  0.2597E+02
  15.920  0.8993E-01  0.2597E+02
  15.930  0.8833E-01  0.2597E+02
  15.940  0.8674E-01  0.2597E+02
  15.950  0.8517E-01  0.2597E+02
  15.960  0.8360E-01  0.2598E+02
  15.970  0.8205E-01  0.2598E+02
  15.980  0.8050E-01  0.2598E+02
  15.990  0.7895E-01  0.2598E+02
  16.000  0.7741E-01  0.2598E+02
  16.010  0.7587E-01  0.2598E+02
  16.020  0.7434E-01  0.2598E+02
  16.030  0.7280E-01  0.2598E+02
  16.040  0.7126E-01  0.2598E+02
  16.050  0.6972E-01  0.2598E+02
  16.060  0.6818E-01  0.2598E+02
  16.070  0.6663E-01  0.2598E+02
  16.080  0.6508E-01  0.2598E+02
  16.090  0.6353E-01  0.2598E+02
  16.100  0.6198E-01  0.2599E+02
  16.110  0.6042E-01  0.2599E+02
  16.120  0.5886E-01  0.2599E+02
  16.130  0.5730E-01  0.2599E+02
  16.140  0.5574E-01  0.2599E+02
  16.150  0.5417E-01  0.2599E+02
  16.160  0.5261E-01  0.2599E+02
  16.170  0.5106E-01  0.2599E+02
  16.180  0.4950E-01  0.2599E+02
  16.190  0.4795E-01  0.2599E+02
  16.200  0.4641E-01  0.2599E+02
  16.210  0.4488E-01  0.2599E+02
  16.220  0.4335E-01  0.2599E+02
  16.230  0.4184E-01  0.2599E+02
  16.240  0.4034E-01  0.2599E+02
  16.250  0.3886E-01  0.2599E+02
  16.260  0.3739E-01  0.2599E+02
  16.270  0.3595E-01  0.2599E+02
  16.280  0.3452E-01  0.2599E+02
  16.290  0.3312E-01  0.2599E+02
  16.300  0.3174E-01  0.2599E+02
  16.310  0.3038E-01  0.2600E+02
  16.320  0.2906E-01  0.2600E+02
  16.330  0.2776E-01  0.2600E+02
  16.340  0.2649E-01  0.2600E+02
  16.350  0.2525E-01  0.2600E+02
  16.360  0.2404E-01  0.2600E+02
  16.370  0.2286E-01  0.2600E+02
  16.380  0.2172E-01  0.2600E+02
  16.390  0.2062E-01  0.2600E+02
  16.400  0.1954E-01  0.2600E+02
  16.410  0.1851E-01  0.2600E+02
  16.420  0.1750E-01  0.2600E+02
  16.430  0.1654E-01  0.2600E+02
  16.440  0.1561E-01  0.2600E+02
  16.450  0.1471E-01  0.2600E+02
  16.460  0.1386E-01  0.2600E+02
  16.470  0.1303E-01  0.2600E+02
  16.480  0.1225E-01  0.2600E+02
  16.490  0.1149E-01  0.2600E+02
  16.500  0.1077E-01  0.2600E+02
  16.510  0.1009E-01  0.2600E+02
  16.520  0.9437E-02  0.2600E+02
  16.530  0.8818E-02  0.2600E+02
  16.540  0.8229E-02  0.2600E+02
  16.550  0.7672E-02  0.2600E+02
  16.560  0.7144E-02  0.2600E+02
  16.570  0.6646E-02  0.2600E+02
  16.580  0.6175E-02  0.2600E+02
  16.590  0.5731E-02  0.2600E+02
  16.600  0.5313E-02  0.2600E+02
  16.610  0.4920E-02  0.2600E+02
  16.620  0.4552E-02  0.2600E+02
  16.630  0.4206E-02  0.2600E+02
  16.640  0.3882E-02  0.2600E+02
  16.650  0.3579E-02  0.2600E+02
  16.660  0.3296E-02  0.2600E+02
  16.670  0.3032E-02  0.2600E+02
  16.680  0.2786E-02  0.2600E+02
  16.690  0.2558E-02  0.2600E+02
  16.700  0.2345E-02  0.2600E+02
  16.710  0.2148E-02  0.2600E+02
  16.720  0.1965E-02  0.2600E+02
  16.730  0.1795E-02  0.2600E+02
  16.740  0.1639E-02  0.2600E+02
  16.750  0.1494E-02  0.2600E+02
  16.760  0.1361E-02  0.2600E+02
  16.770  0.1238E-02  0.2600E+02
  16.780  0.1125E-02  0.2600E+02
  16.790  0.1021E-02  0.2600E+02
  16.800  0.9253E-03  0.2600E+02
  16.810  0.8378E-03  0.2600E+02
  16.820  0.7577E-03  0.2600E+02
  16.830  0.6845E-03  0.2600E+02
  16.840  0.6176E-03  0.2600E+02
  16.850  0.5566E-03  0.2600E+02
  16.860  0.5010E-03  0.2600E+02
  16.870  0.4504E-03  0.2600E+02
  16.880  0.4044E-03  0.2600E+02
  16.890  0.3627E-03  0.2600E+02
  16.900  0.3249E-03  0.2600E+02
  16.910  0.2907E-03  0.2600E+02
  16.920  0.2597E-03  0.2600E+02
  16.930  0.2318E-03  0.2600E+02
  16.940  0.2066E-03  0.2600E+02
  16.950  0.1839E-03  0.2600E+02
  16.960  0.1635E-03  0.2600E+02
  16.970  0.1451E-03  0.2600E+02
  16.980  0.1287E-03  0.2600E+02
  16.990  0.1140E-03  0.2600E+02
  17.000  0.1008E-03  0.2600E+02
  17.010  0.8901E-04  0.2600E+02
  17.020  0.7851E-04  0.2600E+02
  17.030  0.6915E-04  0.2600E+02
  17.040  0.6083E-04  0.2600E+02
  17.050  0.5343E-04  0.2600E+02
  17.060  0.4687E-04  0.2600E+02
  17.070  0.4106E-04  0.2600E+02
  17.080  0.3591E-04  0.2600E+02
  17.090  0.3137E-04  0.2600E+02
  17.100  0.2736E-04  0.2600E+02
  17.110  0.2384E-04  0.2600E+02
  17.120  0.2073E-04  0.2600E+02
  17.130  0.1801E-04  0.2600E+02
  17.140  0.1562E-04  0.2600E+02
  17.150  0.1353E-04  0.2600E+02
  17.160  0.1170E-04  0.2600E+02
  17.170  0.1010E-04  0.2600E+02
  17.180  0.8708E-05  0.2600E+02
  17.190  0.7497E-05  0.2600E+02
  17.200  0.6445E-05  0.2600E+02
  17.210  0.5532E-05  0.2600E+02
  17.220  0.4741E-05  0.2600E+02
  17.230  0.4057E-05  0.2600E+02
  17.240  0.3467E-05  0.2600E+02
  17.250  0.2957E-05  0.2600E+02
  17.260  0.2519E-05  0.2600E+02
  17.270  0.2143E-05  0.2600E+02
  17.280  0.1820E-05  0.2600E+02
  17.290  0.1543E-05  0.2600E+02
  17.300  0.1306E-05  0.2600E+02
  17.310  0.1104E-05  0.2600E+02
  17.320  0.9315E-06  0.2600E+02
  17.330  0.7849E-06  0.2600E+02
  17.340  0.6603E-06  0.2600E+02
  17.350  0.5546E-06  0.2600E+02
  17.360  0.4650E-06  0.2600E+02
  17.370  0.3893E-06  0.2600E+02
