#  E (eV)   dos(E)     Int dos(E) EFermi =    5.167 eV
  -8.058  0.6816E-06  0.6816E-08
  -8.048  0.1089E-05  0.1771E-07
  -8.038  0.1723E-05  0.3494E-07
  -8.028  0.2699E-05  0.6193E-07
  -8.018  0.4184E-05  0.1038E-06
  -8.008  0.6423E-05  0.1680E-06
  -7.998  0.9760E-05  0.2656E-06
  -7.988  0.1468E-04  0.4125E-06
  -7.978  0.2188E-04  0.6312E-06
  -7.968  0.3227E-04  0.9539E-06
  -7.958  0.4712E-04  0.1425E-05
  -7.948  0.6815E-04  0.2107E-05
  -7.938  0.9760E-04  0.3083E-05
  -7.928  0.1384E-03  0.4467E-05
  -7.918  0.1944E-03  0.6411E-05
  -7.908  0.2704E-03  0.9115E-05
  -7.898  0.3725E-03  0.1284E-04
  -7.888  0.5084E-03  0.1792E-04
  -7.878  0.6872E-03  0.2480E-04
  -7.868  0.9203E-03  0.3400E-04
  -7.858  0.1221E-02  0.4621E-04
  -7.848  0.1605E-02  0.6225E-04
  -7.838  0.2090E-02  0.8315E-04
  -7.828  0.2697E-02  0.1101E-03
  -7.818  0.3449E-02  0.1446E-03
  -7.808  0.4371E-02  0.1883E-03
  -7.798  0.5491E-02  0.2432E-03
  -7.788  0.6839E-02  0.3116E-03
  -7.778  0.8443E-02  0.3960E-03
  -7.768  0.1033E-01  0.4994E-03
  -7.758  0.1254E-01  0.6248E-03
  -7.748  0.1510E-01  0.7758E-03
  -7.738  0.1803E-01  0.9562E-03
  -7.728  0.2136E-01  0.1170E-02
  -7.718  0.2510E-01  0.1421E-02
  -7.708  0.2927E-01  0.1713E-02
  -7.698  0.3388E-01  0.2052E-02
  -7.688  0.3892E-01  0.2441E-02
  -7.678  0.4440E-01  0.2885E-02
  -7.668  0.5029E-01  0.3388E-02
  -7.658  0.5658E-01  0.3954E-02
  -7.648  0.6325E-01  0.4587E-02
  -7.638  0.7025E-01  0.5289E-02
  -7.628  0.7755E-01  0.6064E-02
  -7.618  0.8510E-01  0.6915E-02
  -7.608  0.9287E-01  0.7844E-02
  -7.598  0.1008E+00  0.8852E-02
  -7.588  0.1088E+00  0.9941E-02
  -7.578  0.1170E+00  0.1111E-01
  -7.568  0.1251E+00  0.1236E-01
  -7.558  0.1332E+00  0.1369E-01
  -7.548  0.1413E+00  0.1511E-01
  -7.538  0.1493E+00  0.1660E-01
  -7.528  0.1571E+00  0.1817E-01
  -7.518  0.1648E+00  0.1982E-01
  -7.508  0.1724E+00  0.2154E-01
  -7.498  0.1798E+00  0.2334E-01
  -7.488  0.1871E+00  0.2521E-01
  -7.478  0.1941E+00  0.2715E-01
  -7.468  0.2010E+00  0.2916E-01
  -7.458  0.2077E+00  0.3124E-01
  -7.448  0.2143E+00  0.3338E-01
  -7.438  0.2206E+00  0.3559E-01
  -7.428  0.2269E+00  0.3786E-01
  -7.418  0.2329E+00  0.4019E-01
  -7.408  0.2389E+00  0.4258E-01
  -7.398  0.2446E+00  0.4502E-01
  -7.388  0.2503E+00  0.4753E-01
  -7.378  0.2558E+00  0.5008E-01
  -7.368  0.2613E+00  0.5270E-01
  -7.358  0.2666E+00  0.5536E-01
  -7.348  0.2718E+00  0.5808E-01
  -7.338  0.2770E+00  0.6085E-01
  -7.328  0.2820E+00  0.6367E-01
  -7.318  0.2871E+00  0.6654E-01
  -7.308  0.2921E+00  0.6946E-01
  -7.298  0.2970E+00  0.7243E-01
  -7.288  0.3020E+00  0.7545E-01
  -7.278  0.3069E+00  0.7852E-01
  -7.268  0.3117E+00  0.8164E-01
  -7.258  0.3166E+00  0.8480E-01
  -7.248  0.3214E+00  0.8802E-01
  -7.238  0.3262E+00  0.9128E-01
  -7.228  0.3309E+00  0.9459E-01
  -7.218  0.3355E+00  0.9794E-01
  -7.208  0.3401E+00  0.1013E+00
  -7.198  0.3446E+00  0.1048E+00
  -7.188  0.3491E+00  0.1083E+00
  -7.178  0.3534E+00  0.1118E+00
  -7.168  0.3577E+00  0.1154E+00
  -7.158  0.3620E+00  0.1190E+00
  -7.148  0.3663E+00  0.1227E+00
  -7.138  0.3706E+00  0.1264E+00
  -7.128  0.3749E+00  0.1301E+00
  -7.118  0.3793E+00  0.1339E+00
  -7.108  0.3837E+00  0.1378E+00
  -7.098  0.3882E+00  0.1416E+00
  -7.088  0.3928E+00  0.1456E+00
  -7.078  0.3975E+00  0.1495E+00
  -7.068  0.4022E+00  0.1536E+00
  -7.058  0.4070E+00  0.1576E+00
  -7.048  0.4117E+00  0.1618E+00
  -7.038  0.4164E+00  0.1659E+00
  -7.028  0.4210E+00  0.1701E+00
  -7.018  0.4256E+00  0.1744E+00
  -7.008  0.4300E+00  0.1787E+00
  -6.998  0.4342E+00  0.1830E+00
  -6.988  0.4384E+00  0.1874E+00
  -6.978  0.4424E+00  0.1918E+00
  -6.968  0.4463E+00  0.1963E+00
  -6.958  0.4502E+00  0.2008E+00
  -6.948  0.4540E+00  0.2053E+00
  -6.938  0.4579E+00  0.2099E+00
  -6.928  0.4619E+00  0.2145E+00
  -6.918  0.4661E+00  0.2192E+00
  -6.908  0.4704E+00  0.2239E+00
  -6.898  0.4750E+00  0.2287E+00
  -6.888  0.4797E+00  0.2335E+00
  -6.878  0.4847E+00  0.2383E+00
  -6.868  0.4899E+00  0.2432E+00
  -6.858  0.4952E+00  0.2481E+00
  -6.848  0.5006E+00  0.2532E+00
  -6.838  0.5060E+00  0.2582E+00
  -6.828  0.5114E+00  0.2633E+00
  -6.818  0.5167E+00  0.2685E+00
  -6.808  0.5219E+00  0.2737E+00
  -6.798  0.5268E+00  0.2790E+00
  -6.788  0.5315E+00  0.2843E+00
  -6.778  0.5360E+00  0.2897E+00
  -6.768  0.5402E+00  0.2951E+00
  -6.758  0.5442E+00  0.3005E+00
  -6.748  0.5481E+00  0.3060E+00
  -6.738  0.5519E+00  0.3115E+00
  -6.728  0.5558E+00  0.3171E+00
  -6.718  0.5597E+00  0.3227E+00
  -6.708  0.5639E+00  0.3283E+00
  -6.698  0.5683E+00  0.3340E+00
  -6.688  0.5730E+00  0.3397E+00
  -6.678  0.5782E+00  0.3455E+00
  -6.668  0.5837E+00  0.3513E+00
  -6.658  0.5896E+00  0.3572E+00
  -6.648  0.5958E+00  0.3632E+00
  -6.638  0.6024E+00  0.3692E+00
  -6.628  0.6091E+00  0.3753E+00
  -6.618  0.6160E+00  0.3815E+00
  -6.608  0.6229E+00  0.3877E+00
  -6.598  0.6297E+00  0.3940E+00
  -6.588  0.6363E+00  0.4003E+00
  -6.578  0.6427E+00  0.4068E+00
  -6.568  0.6489E+00  0.4133E+00
  -6.558  0.6547E+00  0.4198E+00
  -6.548  0.6601E+00  0.4264E+00
  -6.538  0.6654E+00  0.4331E+00
  -6.528  0.6704E+00  0.4398E+00
  -6.518  0.6752E+00  0.4465E+00
  -6.508  0.6800E+00  0.4533E+00
  -6.498  0.6849E+00  0.4602E+00
  -6.488  0.6900E+00  0.4671E+00
  -6.478  0.6954E+00  0.4740E+00
  -6.468  0.7012E+00  0.4810E+00
  -6.458  0.7074E+00  0.4881E+00
  -6.448  0.7142E+00  0.4952E+00
  -6.438  0.7215E+00  0.5025E+00
  -6.428  0.7294E+00  0.5098E+00
  -6.418  0.7378E+00  0.5171E+00
  -6.408  0.7467E+00  0.5246E+00
  -6.398  0.7560E+00  0.5322E+00
  -6.388  0.7656E+00  0.5398E+00
  -6.378  0.7754E+00  0.5476E+00
  -6.368  0.7854E+00  0.5554E+00
  -6.358  0.7953E+00  0.5634E+00
  -6.348  0.8052E+00  0.5714E+00
  -6.338  0.8150E+00  0.5796E+00
  -6.328  0.8246E+00  0.5878E+00
  -6.318  0.8340E+00  0.5962E+00
  -6.308  0.8432E+00  0.6046E+00
  -6.298  0.8524E+00  0.6131E+00
  -6.288  0.8615E+00  0.6217E+00
  -6.278  0.8707E+00  0.6304E+00
  -6.268  0.8802E+00  0.6392E+00
  -6.258  0.8901E+00  0.6481E+00
  -6.248  0.9005E+00  0.6572E+00
  -6.238  0.9117E+00  0.6663E+00
  -6.228  0.9237E+00  0.6755E+00
  -6.218  0.9367E+00  0.6849E+00
  -6.208  0.9507E+00  0.6944E+00
  -6.198  0.9658E+00  0.7040E+00
  -6.188  0.9820E+00  0.7139E+00
  -6.178  0.9993E+00  0.7239E+00
  -6.168  0.1018E+01  0.7340E+00
  -6.158  0.1037E+01  0.7444E+00
  -6.148  0.1056E+01  0.7550E+00
  -6.138  0.1077E+01  0.7657E+00
  -6.128  0.1097E+01  0.7767E+00
  -6.118  0.1118E+01  0.7879E+00
  -6.108  0.1139E+01  0.7993E+00
  -6.098  0.1159E+01  0.8108E+00
  -6.088  0.1179E+01  0.8226E+00
  -6.078  0.1198E+01  0.8346E+00
  -6.068  0.1216E+01  0.8468E+00
  -6.058  0.1234E+01  0.8591E+00
  -6.048  0.1251E+01  0.8716E+00
  -6.038  0.1267E+01  0.8843E+00
  -6.028  0.1283E+01  0.8971E+00
  -6.018  0.1297E+01  0.9101E+00
  -6.008  0.1311E+01  0.9232E+00
  -5.998  0.1324E+01  0.9365E+00
  -5.988  0.1337E+01  0.9498E+00
  -5.978  0.1349E+01  0.9633E+00
  -5.968  0.1360E+01  0.9769E+00
  -5.958  0.1370E+01  0.9906E+00
  -5.948  0.1380E+01  0.1004E+01
  -5.938  0.1389E+01  0.1018E+01
  -5.928  0.1397E+01  0.1032E+01
  -5.918  0.1403E+01  0.1046E+01
  -5.908  0.1409E+01  0.1060E+01
  -5.898  0.1414E+01  0.1075E+01
  -5.888  0.1417E+01  0.1089E+01
  -5.878  0.1420E+01  0.1103E+01
  -5.868  0.1422E+01  0.1117E+01
  -5.858  0.1422E+01  0.1131E+01
  -5.848  0.1422E+01  0.1146E+01
  -5.838  0.1421E+01  0.1160E+01
  -5.828  0.1420E+01  0.1174E+01
  -5.818  0.1419E+01  0.1188E+01
  -5.808  0.1417E+01  0.1202E+01
  -5.798  0.1416E+01  0.1217E+01
  -5.788  0.1415E+01  0.1231E+01
  -5.778  0.1414E+01  0.1245E+01
  -5.768  0.1413E+01  0.1259E+01
  -5.758  0.1412E+01  0.1273E+01
  -5.748  0.1412E+01  0.1287E+01
  -5.738  0.1412E+01  0.1301E+01
  -5.728  0.1412E+01  0.1315E+01
  -5.718  0.1413E+01  0.1330E+01
  -5.708  0.1414E+01  0.1344E+01
  -5.698  0.1415E+01  0.1358E+01
  -5.688  0.1415E+01  0.1372E+01
  -5.678  0.1416E+01  0.1386E+01
  -5.668  0.1418E+01  0.1400E+01
  -5.658  0.1419E+01  0.1415E+01
  -5.648  0.1420E+01  0.1429E+01
  -5.638  0.1421E+01  0.1443E+01
  -5.628  0.1423E+01  0.1457E+01
  -5.618  0.1425E+01  0.1471E+01
  -5.608  0.1427E+01  0.1486E+01
  -5.598  0.1430E+01  0.1500E+01
  -5.588  0.1433E+01  0.1514E+01
  -5.578  0.1437E+01  0.1529E+01
  -5.568  0.1441E+01  0.1543E+01
  -5.558  0.1445E+01  0.1558E+01
  -5.548  0.1450E+01  0.1572E+01
  -5.538  0.1455E+01  0.1587E+01
  -5.528  0.1461E+01  0.1601E+01
  -5.518  0.1466E+01  0.1616E+01
  -5.508  0.1471E+01  0.1631E+01
  -5.498  0.1476E+01  0.1645E+01
  -5.488  0.1481E+01  0.1660E+01
  -5.478  0.1485E+01  0.1675E+01
  -5.468  0.1487E+01  0.1690E+01
  -5.458  0.1489E+01  0.1705E+01
  -5.448  0.1488E+01  0.1720E+01
  -5.438  0.1485E+01  0.1734E+01
  -5.428  0.1479E+01  0.1749E+01
  -5.418  0.1470E+01  0.1764E+01
  -5.408  0.1457E+01  0.1779E+01
  -5.398  0.1441E+01  0.1793E+01
  -5.388  0.1420E+01  0.1807E+01
  -5.378  0.1394E+01  0.1821E+01
  -5.368  0.1363E+01  0.1835E+01
  -5.358  0.1327E+01  0.1848E+01
  -5.348  0.1285E+01  0.1861E+01
  -5.338  0.1239E+01  0.1873E+01
  -5.328  0.1188E+01  0.1885E+01
  -5.318  0.1132E+01  0.1896E+01
  -5.308  0.1072E+01  0.1907E+01
  -5.298  0.1009E+01  0.1917E+01
  -5.288  0.9438E+00  0.1927E+01
  -5.278  0.8763E+00  0.1935E+01
  -5.268  0.8079E+00  0.1944E+01
  -5.258  0.7392E+00  0.1951E+01
  -5.248  0.6713E+00  0.1958E+01
  -5.238  0.6048E+00  0.1964E+01
  -5.228  0.5406E+00  0.1969E+01
  -5.218  0.4792E+00  0.1974E+01
  -5.208  0.4213E+00  0.1978E+01
  -5.198  0.3673E+00  0.1982E+01
  -5.188  0.3174E+00  0.1985E+01
  -5.178  0.2719E+00  0.1988E+01
  -5.168  0.2309E+00  0.1990E+01
  -5.158  0.1943E+00  0.1992E+01
  -5.148  0.1620E+00  0.1994E+01
  -5.138  0.1339E+00  0.1995E+01
  -5.128  0.1096E+00  0.1996E+01
  -5.118  0.8889E-01  0.1997E+01
  -5.108  0.7143E-01  0.1998E+01
  -5.098  0.5685E-01  0.1998E+01
  -5.088  0.4482E-01  0.1999E+01
  -5.078  0.3500E-01  0.1999E+01
  -5.068  0.2707E-01  0.1999E+01
  -5.058  0.2073E-01  0.1999E+01
  -5.048  0.1572E-01  0.2000E+01
  -5.038  0.1181E-01  0.2000E+01
  -5.028  0.8783E-02  0.2000E+01
  -5.018  0.6468E-02  0.2000E+01
  -5.008  0.4717E-02  0.2000E+01
  -4.998  0.3405E-02  0.2000E+01
  -4.988  0.2434E-02  0.2000E+01
  -4.978  0.1723E-02  0.2000E+01
  -4.968  0.1207E-02  0.2000E+01
  -4.958  0.8373E-03  0.2000E+01
  -4.948  0.5750E-03  0.2000E+01
  -4.938  0.3909E-03  0.2000E+01
  -4.928  0.2631E-03  0.2000E+01
  -4.918  0.1753E-03  0.2000E+01
  -4.908  0.1156E-03  0.2000E+01
  -4.898  0.7546E-04  0.2000E+01
  -4.888  0.4877E-04  0.2000E+01
  -4.878  0.3119E-04  0.2000E+01
  -4.868  0.1975E-04  0.2000E+01
  -4.858  0.1238E-04  0.2000E+01
  -4.848  0.7679E-05  0.2000E+01
  -4.838  0.4715E-05  0.2000E+01
  -4.828  0.2866E-05  0.2000E+01
  -4.818  0.1724E-05  0.2000E+01
  -4.808  0.1027E-05  0.2000E+01
  -4.798  0.6049E-06  0.2000E+01
  -4.788  0.3528E-06  0.2000E+01
  -4.778  0.2037E-06  0.2000E+01
  -4.768  0.1164E-06  0.2000E+01
  -4.758  0.6582E-07  0.2000E+01
  -4.748  0.3684E-07  0.2000E+01
  -4.738  0.2041E-07  0.2000E+01
  -4.728  0.1119E-07  0.2000E+01
  -4.718  0.6071E-08  0.2000E+01
  -4.708  0.3260E-08  0.2000E+01
  -4.698  0.1733E-08  0.2000E+01
  -4.688  0.9113E-09  0.2000E+01
  -4.678  0.4744E-09  0.2000E+01
  -4.668  0.2444E-09  0.2000E+01
  -4.658  0.1246E-09  0.2000E+01
  -4.648  0.6288E-10  0.2000E+01
  -4.638  0.3140E-10  0.2000E+01
  -4.628  0.1552E-10  0.2000E+01
  -4.618  0.7589E-11  0.2000E+01
  -4.608  0.3673E-11  0.2000E+01
  -4.598  0.1760E-11  0.2000E+01
  -4.588  0.8341E-12  0.2000E+01
  -4.578  0.3913E-12  0.2000E+01
  -4.568  0.1817E-12  0.2000E+01
  -4.558  0.8346E-13  0.2000E+01
  -4.548  0.3794E-13  0.2000E+01
  -4.538  0.1707E-13  0.2000E+01
  -4.528  0.7602E-14  0.2000E+01
  -4.518  0.3349E-14  0.2000E+01
  -4.508  0.1461E-14  0.2000E+01
  -4.498  0.6302E-15  0.2000E+01
  -4.488  0.2691E-15  0.2000E+01
  -4.478  0.1137E-15  0.2000E+01
  -4.468  0.4755E-16  0.2000E+01
  -4.458  0.1968E-16  0.2000E+01
  -4.448  0.8057E-17  0.2000E+01
  -4.438  0.3265E-17  0.2000E+01
  -4.428  0.1309E-17  0.2000E+01
  -4.418  0.5194E-18  0.2000E+01
  -4.408  0.2039E-18  0.2000E+01
  -4.398  0.7924E-19  0.2000E+01
  -4.388  0.3047E-19  0.2000E+01
  -4.378  0.1159E-19  0.2000E+01
  -4.368  0.4364E-20  0.2000E+01
  -4.358  0.1626E-20  0.2000E+01
  -4.348  0.5992E-21  0.2000E+01
  -4.338  0.2186E-21  0.2000E+01
  -4.328  0.7889E-22  0.2000E+01
  -4.318  0.2818E-22  0.2000E+01
  -4.308  0.9959E-23  0.2000E+01
  -4.298  0.3483E-23  0.2000E+01
  -4.288  0.1205E-23  0.2000E+01
  -4.278  0.4126E-24  0.2000E+01
  -4.268  0.1398E-24  0.2000E+01
  -4.258  0.4687E-25  0.2000E+01
  -4.248  0.1555E-25  0.2000E+01
  -4.238  0.5103E-26  0.2000E+01
  -4.228  0.1657E-26  0.2000E+01
  -4.218  0.5326E-27  0.2000E+01
  -4.208  0.1693E-27  0.2000E+01
  -4.198  0.5328E-28  0.2000E+01
  -4.188  0.1659E-28  0.2000E+01
  -4.178  0.5109E-29  0.2000E+01
  -4.168  0.1557E-29  0.2000E+01
  -4.158  0.4696E-30  0.2000E+01
  -4.148  0.1401E-30  0.2000E+01
  -4.138  0.4137E-31  0.2000E+01
  -4.128  0.1208E-31  0.2000E+01
  -4.118  0.3493E-32  0.2000E+01
  -4.108  0.9989E-33  0.2000E+01
  -4.098  0.2826E-33  0.2000E+01
  -4.088  0.7913E-34  0.2000E+01
  -4.078  0.2192E-34  0.2000E+01
  -4.068  0.6008E-35  0.2000E+01
  -4.058  0.1629E-35  0.2000E+01
  -4.048  0.4371E-36  0.2000E+01
  -4.038  0.1160E-36  0.2000E+01
  -4.028  0.3048E-37  0.2000E+01
  -4.018  0.7920E-38  0.2000E+01
  -4.008  0.2036E-38  0.2000E+01
  -3.998  0.5180E-39  0.2000E+01
  -3.988  0.1304E-39  0.2000E+01
  -3.978  0.3247E-40  0.2000E+01
  -3.968  0.7999E-41  0.2000E+01
  -3.958  0.1950E-41  0.2000E+01
  -3.948  0.4703E-42  0.2000E+01
  -3.938  0.1122E-42  0.2000E+01
  -3.928  0.2649E-43  0.2000E+01
  -3.918  0.6188E-44  0.2000E+01
  -3.908  0.1430E-44  0.2000E+01
  -3.898  0.3269E-45  0.2000E+01
  -3.888  0.7396E-46  0.2000E+01
  -3.878  0.1655E-46  0.2000E+01
  -3.868  0.3665E-47  0.2000E+01
  -3.858  0.8028E-48  0.2000E+01
  -3.848  0.1740E-48  0.2000E+01
  -3.838  0.3731E-49  0.2000E+01
  -3.828  0.7915E-50  0.2000E+01
  -3.818  0.1661E-50  0.2000E+01
  -3.808  0.3449E-51  0.2000E+01
  -3.798  0.7087E-52  0.2000E+01
  -3.788  0.1440E-52  0.2000E+01
  -3.778  0.2896E-53  0.2000E+01
  -3.768  0.5762E-54  0.2000E+01
  -3.758  0.1134E-54  0.2000E+01
  -3.748  0.2208E-55  0.2000E+01
  -3.738  0.4254E-56  0.2000E+01
  -3.728  0.8108E-57  0.2000E+01
  -3.718  0.1529E-57  0.2000E+01
  -3.708  0.2852E-58  0.2000E+01
  -3.698  0.5263E-59  0.2000E+01
  -3.688  0.9609E-60  0.2000E+01
  -3.678  0.1736E-60  0.2000E+01
  -3.668  0.3102E-61  0.2000E+01
  -3.658  0.5484E-62  0.2000E+01
  -3.648  0.9593E-63  0.2000E+01
  -3.638  0.1660E-63  0.2000E+01
  -3.628  0.2842E-64  0.2000E+01
  -3.618  0.4813E-65  0.2000E+01
  -3.608  0.8065E-66  0.2000E+01
  -3.598  0.1337E-66  0.2000E+01
  -3.588  0.2192E-67  0.2000E+01
  -3.578  0.3557E-68  0.2000E+01
  -3.568  0.5709E-69  0.2000E+01
  -3.558  0.9065E-70  0.2000E+01
  -3.548  0.1424E-70  0.2000E+01
  -3.538  0.2216E-71  0.2000E+01
  -3.528  0.3604E-72  0.2000E+01
  -3.518  0.1831E-72  0.2000E+01
  -3.508  0.8587E-72  0.2000E+01
  -3.498  0.5455E-71  0.2000E+01
  -3.488  0.3458E-70  0.2000E+01
  -3.478  0.2169E-69  0.2000E+01
  -3.468  0.1346E-68  0.2000E+01
  -3.458  0.8262E-68  0.2000E+01
  -3.448  0.5018E-67  0.2000E+01
  -3.438  0.3015E-66  0.2000E+01
  -3.428  0.1792E-65  0.2000E+01
  -3.418  0.1054E-64  0.2000E+01
  -3.408  0.6130E-64  0.2000E+01
  -3.398  0.3528E-63  0.2000E+01
  -3.388  0.2009E-62  0.2000E+01
  -3.378  0.1132E-61  0.2000E+01
  -3.368  0.6306E-61  0.2000E+01
  -3.358  0.3476E-60  0.2000E+01
  -3.348  0.1896E-59  0.2000E+01
  -3.338  0.1023E-58  0.2000E+01
  -3.328  0.5461E-58  0.2000E+01
  -3.318  0.2884E-57  0.2000E+01
  -3.308  0.1507E-56  0.2000E+01
  -3.298  0.7789E-56  0.2000E+01
  -3.288  0.3983E-55  0.2000E+01
  -3.278  0.2015E-54  0.2000E+01
  -3.268  0.1009E-53  0.2000E+01
  -3.258  0.4994E-53  0.2000E+01
  -3.248  0.2446E-52  0.2000E+01
  -3.238  0.1186E-51  0.2000E+01
  -3.228  0.5685E-51  0.2000E+01
  -3.218  0.2696E-50  0.2000E+01
  -3.208  0.1265E-49  0.2000E+01
  -3.198  0.5875E-49  0.2000E+01
  -3.188  0.2699E-48  0.2000E+01
  -3.178  0.1226E-47  0.2000E+01
  -3.168  0.5513E-47  0.2000E+01
  -3.158  0.2452E-46  0.2000E+01
  -3.148  0.1079E-45  0.2000E+01
  -3.138  0.4698E-45  0.2000E+01
  -3.128  0.2023E-44  0.2000E+01
  -3.118  0.8622E-44  0.2000E+01
  -3.108  0.3635E-43  0.2000E+01
  -3.098  0.1516E-42  0.2000E+01
  -3.088  0.6256E-42  0.2000E+01
  -3.078  0.2554E-41  0.2000E+01
  -3.068  0.1032E-40  0.2000E+01
  -3.058  0.4123E-40  0.2000E+01
  -3.048  0.1630E-39  0.2000E+01
  -3.038  0.6375E-39  0.2000E+01
  -3.028  0.2467E-38  0.2000E+01
  -3.018  0.9446E-38  0.2000E+01
  -3.008  0.3578E-37  0.2000E+01
  -2.998  0.1341E-36  0.2000E+01
  -2.988  0.4972E-36  0.2000E+01
  -2.978  0.1824E-35  0.2000E+01
  -2.968  0.6620E-35  0.2000E+01
  -2.958  0.2377E-34  0.2000E+01
  -2.948  0.8445E-34  0.2000E+01
  -2.938  0.2968E-33  0.2000E+01
  -2.928  0.1032E-32  0.2000E+01
  -2.918  0.3552E-32  0.2000E+01
  -2.908  0.1209E-31  0.2000E+01
  -2.898  0.4073E-31  0.2000E+01
  -2.888  0.1357E-30  0.2000E+01
  -2.878  0.4475E-30  0.2000E+01
  -2.868  0.1460E-29  0.2000E+01
  -2.858  0.4712E-29  0.2000E+01
  -2.848  0.1505E-28  0.2000E+01
  -2.838  0.4754E-28  0.2000E+01
  -2.828  0.1486E-27  0.2000E+01
  -2.818  0.4597E-27  0.2000E+01
  -2.808  0.1407E-26  0.2000E+01
  -2.798  0.4259E-26  0.2000E+01
  -2.788  0.1276E-25  0.2000E+01
  -2.778  0.3783E-25  0.2000E+01
  -2.768  0.1109E-24  0.2000E+01
  -2.758  0.3219E-24  0.2000E+01
  -2.748  0.9244E-24  0.2000E+01
  -2.738  0.2626E-23  0.2000E+01
  -2.728  0.7382E-23  0.2000E+01
  -2.718  0.2053E-22  0.2000E+01
  -2.708  0.5651E-22  0.2000E+01
  -2.698  0.1539E-21  0.2000E+01
  -2.688  0.4146E-21  0.2000E+01
  -2.678  0.1105E-20  0.2000E+01
  -2.668  0.2916E-20  0.2000E+01
  -2.658  0.7610E-20  0.2000E+01
  -2.648  0.1966E-19  0.2000E+01
  -2.638  0.5023E-19  0.2000E+01
  -2.628  0.1270E-18  0.2000E+01
  -2.618  0.3179E-18  0.2000E+01
  -2.608  0.7870E-18  0.2000E+01
  -2.598  0.1928E-17  0.2000E+01
  -2.588  0.4675E-17  0.2000E+01
  -2.578  0.1121E-16  0.2000E+01
  -2.568  0.2662E-16  0.2000E+01
  -2.558  0.6253E-16  0.2000E+01
  -2.548  0.1454E-15  0.2000E+01
  -2.538  0.3344E-15  0.2000E+01
  -2.528  0.7611E-15  0.2000E+01
  -2.518  0.1714E-14  0.2000E+01
  -2.508  0.3821E-14  0.2000E+01
  -2.498  0.8429E-14  0.2000E+01
  -2.488  0.1840E-13  0.2000E+01
  -2.478  0.3975E-13  0.2000E+01
  -2.468  0.8497E-13  0.2000E+01
  -2.458  0.1797E-12  0.2000E+01
  -2.448  0.3763E-12  0.2000E+01
  -2.438  0.7797E-12  0.2000E+01
  -2.428  0.1599E-11  0.2000E+01
  -2.418  0.3245E-11  0.2000E+01
  -2.408  0.6517E-11  0.2000E+01
  -2.398  0.1295E-10  0.2000E+01
  -2.388  0.2548E-10  0.2000E+01
  -2.378  0.4961E-10  0.2000E+01
  -2.368  0.9561E-10  0.2000E+01
  -2.358  0.1823E-09  0.2000E+01
  -2.348  0.3442E-09  0.2000E+01
  -2.338  0.6432E-09  0.2000E+01
  -2.328  0.1189E-08  0.2000E+01
  -2.318  0.2177E-08  0.2000E+01
  -2.308  0.3945E-08  0.2000E+01
  -2.298  0.7076E-08  0.2000E+01
  -2.288  0.1256E-07  0.2000E+01
  -2.278  0.2207E-07  0.2000E+01
  -2.268  0.3840E-07  0.2000E+01
  -2.258  0.6613E-07  0.2000E+01
  -2.248  0.1127E-06  0.2000E+01
  -2.238  0.1903E-06  0.2000E+01
  -2.228  0.3179E-06  0.2000E+01
  -2.218  0.5258E-06  0.2000E+01
  -2.208  0.8611E-06  0.2000E+01
  -2.198  0.1396E-05  0.2000E+01
  -2.188  0.2241E-05  0.2000E+01
  -2.178  0.3563E-05  0.2000E+01
  -2.168  0.5608E-05  0.2000E+01
  -2.158  0.8739E-05  0.2000E+01
  -2.148  0.1349E-04  0.2000E+01
  -2.138  0.2061E-04  0.2000E+01
  -2.128  0.3119E-04  0.2000E+01
  -2.118  0.4675E-04  0.2000E+01
  -2.108  0.6940E-04  0.2000E+01
  -2.098  0.1020E-03  0.2000E+01
  -2.088  0.1486E-03  0.2000E+01
  -2.078  0.2144E-03  0.2000E+01
  -2.068  0.3063E-03  0.2000E+01
  -2.058  0.4336E-03  0.2000E+01
  -2.048  0.6081E-03  0.2000E+01
  -2.038  0.8450E-03  0.2000E+01
  -2.028  0.1163E-02  0.2000E+01
  -2.018  0.1587E-02  0.2000E+01
  -2.008  0.2146E-02  0.2000E+01
  -1.998  0.2877E-02  0.2000E+01
  -1.988  0.3821E-02  0.2000E+01
  -1.978  0.5031E-02  0.2000E+01
  -1.968  0.6568E-02  0.2000E+01
  -1.958  0.8502E-02  0.2000E+01
  -1.948  0.1091E-01  0.2000E+01
  -1.938  0.1389E-01  0.2001E+01
  -1.928  0.1755E-01  0.2001E+01
  -1.918  0.2198E-01  0.2001E+01
  -1.908  0.2733E-01  0.2001E+01
  -1.898  0.3371E-01  0.2002E+01
  -1.888  0.4128E-01  0.2002E+01
  -1.878  0.5018E-01  0.2003E+01
  -1.868  0.6058E-01  0.2003E+01
  -1.858  0.7263E-01  0.2004E+01
  -1.848  0.8650E-01  0.2005E+01
  -1.838  0.1024E+00  0.2006E+01
  -1.828  0.1204E+00  0.2007E+01
  -1.818  0.1408E+00  0.2008E+01
  -1.808  0.1637E+00  0.2010E+01
  -1.798  0.1892E+00  0.2012E+01
  -1.788  0.2176E+00  0.2014E+01
  -1.778  0.2490E+00  0.2017E+01
  -1.768  0.2836E+00  0.2019E+01
  -1.758  0.3215E+00  0.2023E+01
  -1.748  0.3628E+00  0.2026E+01
  -1.738  0.4077E+00  0.2030E+01
  -1.728  0.4562E+00  0.2035E+01
  -1.718  0.5085E+00  0.2040E+01
  -1.708  0.5646E+00  0.2046E+01
  -1.698  0.6245E+00  0.2052E+01
  -1.688  0.6882E+00  0.2059E+01
  -1.678  0.7556E+00  0.2066E+01
  -1.668  0.8267E+00  0.2075E+01
  -1.658  0.9012E+00  0.2084E+01
  -1.648  0.9789E+00  0.2093E+01
  -1.638  0.1060E+01  0.2104E+01
  -1.628  0.1143E+01  0.2115E+01
  -1.618  0.1228E+01  0.2128E+01
  -1.608  0.1315E+01  0.2141E+01
  -1.598  0.1403E+01  0.2155E+01
  -1.588  0.1491E+01  0.2170E+01
  -1.578  0.1579E+01  0.2186E+01
  -1.568  0.1666E+01  0.2202E+01
  -1.558  0.1751E+01  0.2220E+01
  -1.548  0.1833E+01  0.2238E+01
  -1.538  0.1911E+01  0.2257E+01
  -1.528  0.1985E+01  0.2277E+01
  -1.518  0.2053E+01  0.2298E+01
  -1.508  0.2114E+01  0.2319E+01
  -1.498  0.2168E+01  0.2340E+01
  -1.488  0.2214E+01  0.2362E+01
  -1.478  0.2252E+01  0.2385E+01
  -1.468  0.2280E+01  0.2408E+01
  -1.458  0.2298E+01  0.2431E+01
  -1.448  0.2307E+01  0.2454E+01
  -1.438  0.2306E+01  0.2477E+01
  -1.428  0.2296E+01  0.2500E+01
  -1.418  0.2276E+01  0.2523E+01
  -1.408  0.2248E+01  0.2545E+01
  -1.398  0.2212E+01  0.2567E+01
  -1.388  0.2169E+01  0.2589E+01
  -1.378  0.2121E+01  0.2610E+01
  -1.368  0.2067E+01  0.2631E+01
  -1.358  0.2010E+01  0.2651E+01
  -1.348  0.1950E+01  0.2670E+01
  -1.338  0.1889E+01  0.2689E+01
  -1.328  0.1827E+01  0.2708E+01
  -1.318  0.1766E+01  0.2725E+01
  -1.308  0.1705E+01  0.2742E+01
  -1.298  0.1647E+01  0.2759E+01
  -1.288  0.1591E+01  0.2775E+01
  -1.278  0.1537E+01  0.2790E+01
  -1.268  0.1486E+01  0.2805E+01
  -1.258  0.1438E+01  0.2819E+01
  -1.248  0.1392E+01  0.2833E+01
  -1.238  0.1350E+01  0.2847E+01
  -1.228  0.1309E+01  0.2860E+01
  -1.218  0.1271E+01  0.2872E+01
  -1.208  0.1235E+01  0.2885E+01
  -1.198  0.1201E+01  0.2897E+01
  -1.188  0.1168E+01  0.2909E+01
  -1.178  0.1137E+01  0.2920E+01
  -1.168  0.1107E+01  0.2931E+01
  -1.158  0.1078E+01  0.2942E+01
  -1.148  0.1050E+01  0.2952E+01
  -1.138  0.1024E+01  0.2962E+01
  -1.128  0.9988E+00  0.2972E+01
  -1.118  0.9748E+00  0.2982E+01
  -1.108  0.9521E+00  0.2992E+01
  -1.098  0.9309E+00  0.3001E+01
  -1.088  0.9110E+00  0.3010E+01
  -1.078  0.8926E+00  0.3019E+01
  -1.068  0.8758E+00  0.3028E+01
  -1.058  0.8604E+00  0.3036E+01
  -1.048  0.8464E+00  0.3045E+01
  -1.038  0.8338E+00  0.3053E+01
  -1.028  0.8223E+00  0.3061E+01
  -1.018  0.8120E+00  0.3070E+01
  -1.008  0.8024E+00  0.3078E+01
  -0.998  0.7935E+00  0.3086E+01
  -0.988  0.7849E+00  0.3093E+01
  -0.978  0.7764E+00  0.3101E+01
  -0.968  0.7679E+00  0.3109E+01
  -0.958  0.7590E+00  0.3116E+01
  -0.948  0.7497E+00  0.3124E+01
  -0.938  0.7398E+00  0.3131E+01
  -0.928  0.7292E+00  0.3139E+01
  -0.918  0.7181E+00  0.3146E+01
  -0.908  0.7063E+00  0.3153E+01
  -0.898  0.6942E+00  0.3160E+01
  -0.888  0.6818E+00  0.3167E+01
  -0.878  0.6693E+00  0.3173E+01
  -0.868  0.6570E+00  0.3180E+01
  -0.858  0.6451E+00  0.3186E+01
  -0.848  0.6338E+00  0.3193E+01
  -0.838  0.6232E+00  0.3199E+01
  -0.828  0.6136E+00  0.3205E+01
  -0.818  0.6049E+00  0.3211E+01
  -0.808  0.5973E+00  0.3217E+01
  -0.798  0.5907E+00  0.3223E+01
  -0.788  0.5850E+00  0.3229E+01
  -0.778  0.5801E+00  0.3235E+01
  -0.768  0.5760E+00  0.3240E+01
  -0.758  0.5723E+00  0.3246E+01
  -0.748  0.5690E+00  0.3252E+01
  -0.738  0.5659E+00  0.3257E+01
  -0.728  0.5629E+00  0.3263E+01
  -0.718  0.5598E+00  0.3269E+01
  -0.708  0.5565E+00  0.3274E+01
  -0.698  0.5531E+00  0.3280E+01
  -0.688  0.5494E+00  0.3285E+01
  -0.678  0.5454E+00  0.3291E+01
  -0.668  0.5411E+00  0.3296E+01
  -0.658  0.5366E+00  0.3301E+01
  -0.648  0.5317E+00  0.3307E+01
  -0.638  0.5267E+00  0.3312E+01
  -0.628  0.5214E+00  0.3317E+01
  -0.618  0.5158E+00  0.3322E+01
  -0.608  0.5100E+00  0.3328E+01
  -0.598  0.5040E+00  0.3333E+01
  -0.588  0.4977E+00  0.3338E+01
  -0.578  0.4912E+00  0.3342E+01
  -0.568  0.4845E+00  0.3347E+01
  -0.558  0.4776E+00  0.3352E+01
  -0.548  0.4705E+00  0.3357E+01
  -0.538  0.4634E+00  0.3361E+01
  -0.528  0.4562E+00  0.3366E+01
  -0.518  0.4492E+00  0.3370E+01
  -0.508  0.4423E+00  0.3375E+01
  -0.498  0.4358E+00  0.3379E+01
  -0.488  0.4296E+00  0.3384E+01
  -0.478  0.4240E+00  0.3388E+01
  -0.468  0.4189E+00  0.3392E+01
  -0.458  0.4144E+00  0.3396E+01
  -0.448  0.4107E+00  0.3400E+01
  -0.438  0.4076E+00  0.3404E+01
  -0.428  0.4051E+00  0.3408E+01
  -0.418  0.4033E+00  0.3412E+01
  -0.408  0.4021E+00  0.3416E+01
  -0.398  0.4013E+00  0.3420E+01
  -0.388  0.4008E+00  0.3424E+01
  -0.378  0.4006E+00  0.3428E+01
  -0.368  0.4006E+00  0.3432E+01
  -0.358  0.4006E+00  0.3436E+01
  -0.348  0.4006E+00  0.3440E+01
  -0.338  0.4004E+00  0.3444E+01
  -0.328  0.4001E+00  0.3448E+01
  -0.318  0.3996E+00  0.3452E+01
  -0.308  0.3988E+00  0.3456E+01
  -0.298  0.3977E+00  0.3460E+01
  -0.288  0.3964E+00  0.3464E+01
  -0.278  0.3949E+00  0.3468E+01
  -0.268  0.3931E+00  0.3472E+01
  -0.258  0.3910E+00  0.3476E+01
  -0.248  0.3886E+00  0.3480E+01
  -0.238  0.3860E+00  0.3484E+01
  -0.228  0.3830E+00  0.3488E+01
  -0.218  0.3796E+00  0.3492E+01
  -0.208  0.3758E+00  0.3495E+01
  -0.198  0.3715E+00  0.3499E+01
  -0.188  0.3667E+00  0.3503E+01
  -0.178  0.3613E+00  0.3506E+01
  -0.168  0.3554E+00  0.3510E+01
  -0.158  0.3489E+00  0.3513E+01
  -0.148  0.3418E+00  0.3517E+01
  -0.138  0.3343E+00  0.3520E+01
  -0.128  0.3265E+00  0.3523E+01
  -0.118  0.3185E+00  0.3527E+01
  -0.108  0.3106E+00  0.3530E+01
  -0.098  0.3028E+00  0.3533E+01
  -0.088  0.2955E+00  0.3536E+01
  -0.078  0.2888E+00  0.3539E+01
  -0.068  0.2830E+00  0.3541E+01
  -0.058  0.2782E+00  0.3544E+01
  -0.048  0.2746E+00  0.3547E+01
  -0.038  0.2723E+00  0.3550E+01
  -0.028  0.2713E+00  0.3552E+01
  -0.018  0.2716E+00  0.3555E+01
  -0.008  0.2733E+00  0.3558E+01
   0.002  0.2760E+00  0.3561E+01
   0.012  0.2798E+00  0.3563E+01
   0.022  0.2844E+00  0.3566E+01
   0.032  0.2895E+00  0.3569E+01
   0.042  0.2949E+00  0.3572E+01
   0.052  0.3002E+00  0.3575E+01
   0.062  0.3054E+00  0.3578E+01
   0.072  0.3100E+00  0.3581E+01
   0.082  0.3139E+00  0.3584E+01
   0.092  0.3169E+00  0.3588E+01
   0.102  0.3188E+00  0.3591E+01
   0.112  0.3195E+00  0.3594E+01
   0.122  0.3191E+00  0.3597E+01
   0.132  0.3175E+00  0.3600E+01
   0.142  0.3147E+00  0.3603E+01
   0.152  0.3108E+00  0.3607E+01
   0.162  0.3060E+00  0.3610E+01
   0.172  0.3005E+00  0.3613E+01
   0.182  0.2943E+00  0.3616E+01
   0.192  0.2878E+00  0.3618E+01
   0.202  0.2810E+00  0.3621E+01
   0.212  0.2742E+00  0.3624E+01
   0.222  0.2676E+00  0.3627E+01
   0.232  0.2613E+00  0.3629E+01
   0.242  0.2555E+00  0.3632E+01
   0.252  0.2502E+00  0.3634E+01
   0.262  0.2457E+00  0.3637E+01
   0.272  0.2418E+00  0.3639E+01
   0.282  0.2386E+00  0.3642E+01
   0.292  0.2361E+00  0.3644E+01
   0.302  0.2342E+00  0.3646E+01
   0.312  0.2327E+00  0.3649E+01
   0.322  0.2317E+00  0.3651E+01
   0.332  0.2310E+00  0.3653E+01
   0.342  0.2303E+00  0.3656E+01
   0.352  0.2297E+00  0.3658E+01
   0.362  0.2289E+00  0.3660E+01
   0.372  0.2278E+00  0.3662E+01
   0.382  0.2265E+00  0.3665E+01
   0.392  0.2247E+00  0.3667E+01
   0.402  0.2226E+00  0.3669E+01
   0.412  0.2201E+00  0.3671E+01
   0.422  0.2173E+00  0.3673E+01
   0.432  0.2143E+00  0.3676E+01
   0.442  0.2112E+00  0.3678E+01
   0.452  0.2082E+00  0.3680E+01
   0.462  0.2053E+00  0.3682E+01
   0.472  0.2027E+00  0.3684E+01
   0.482  0.2006E+00  0.3686E+01
   0.492  0.1990E+00  0.3688E+01
   0.502  0.1981E+00  0.3690E+01
   0.512  0.1978E+00  0.3692E+01
   0.522  0.1983E+00  0.3694E+01
   0.532  0.1994E+00  0.3696E+01
   0.542  0.2012E+00  0.3698E+01
   0.552  0.2035E+00  0.3700E+01
   0.562  0.2062E+00  0.3702E+01
   0.572  0.2092E+00  0.3704E+01
   0.582  0.2124E+00  0.3706E+01
   0.592  0.2155E+00  0.3708E+01
   0.602  0.2184E+00  0.3711E+01
   0.612  0.2211E+00  0.3713E+01
   0.622  0.2233E+00  0.3715E+01
   0.632  0.2251E+00  0.3717E+01
   0.642  0.2262E+00  0.3719E+01
   0.652  0.2267E+00  0.3722E+01
   0.662  0.2266E+00  0.3724E+01
   0.672  0.2259E+00  0.3726E+01
   0.682  0.2246E+00  0.3728E+01
   0.692  0.2228E+00  0.3731E+01
   0.702  0.2205E+00  0.3733E+01
   0.712  0.2179E+00  0.3735E+01
   0.722  0.2150E+00  0.3737E+01
   0.732  0.2119E+00  0.3739E+01
   0.742  0.2087E+00  0.3741E+01
   0.752  0.2055E+00  0.3744E+01
   0.762  0.2024E+00  0.3746E+01
   0.772  0.1994E+00  0.3748E+01
   0.782  0.1968E+00  0.3750E+01
   0.792  0.1945E+00  0.3751E+01
   0.802  0.1927E+00  0.3753E+01
   0.812  0.1915E+00  0.3755E+01
   0.822  0.1910E+00  0.3757E+01
   0.832  0.1912E+00  0.3759E+01
   0.842  0.1922E+00  0.3761E+01
   0.852  0.1943E+00  0.3763E+01
   0.862  0.1974E+00  0.3765E+01
   0.872  0.2017E+00  0.3767E+01
   0.882  0.2073E+00  0.3769E+01
   0.892  0.2143E+00  0.3771E+01
   0.902  0.2228E+00  0.3773E+01
   0.912  0.2328E+00  0.3776E+01
   0.922  0.2446E+00  0.3778E+01
   0.932  0.2581E+00  0.3781E+01
   0.942  0.2734E+00  0.3784E+01
   0.952  0.2906E+00  0.3786E+01
   0.962  0.3097E+00  0.3790E+01
   0.972  0.3307E+00  0.3793E+01
   0.982  0.3537E+00  0.3796E+01
   0.992  0.3785E+00  0.3800E+01
   1.002  0.4050E+00  0.3804E+01
   1.012  0.4333E+00  0.3809E+01
   1.022  0.4632E+00  0.3813E+01
   1.032  0.4944E+00  0.3818E+01
   1.042  0.5267E+00  0.3823E+01
   1.052  0.5600E+00  0.3829E+01
   1.062  0.5940E+00  0.3835E+01
   1.072  0.6285E+00  0.3841E+01
   1.082  0.6630E+00  0.3848E+01
   1.092  0.6975E+00  0.3855E+01
   1.102  0.7315E+00  0.3862E+01
   1.112  0.7649E+00  0.3870E+01
   1.122  0.7974E+00  0.3878E+01
   1.132  0.8289E+00  0.3886E+01
   1.142  0.8592E+00  0.3895E+01
   1.152  0.8882E+00  0.3903E+01
   1.162  0.9159E+00  0.3913E+01
   1.172  0.9422E+00  0.3922E+01
   1.182  0.9670E+00  0.3932E+01
   1.192  0.9905E+00  0.3942E+01
   1.202  0.1013E+01  0.3952E+01
   1.212  0.1034E+01  0.3962E+01
   1.222  0.1053E+01  0.3973E+01
   1.232  0.1072E+01  0.3983E+01
   1.242  0.1089E+01  0.3994E+01
   1.252  0.1106E+01  0.4005E+01
   1.262  0.1121E+01  0.4017E+01
   1.272  0.1135E+01  0.4028E+01
   1.282  0.1147E+01  0.4039E+01
   1.292  0.1159E+01  0.4051E+01
   1.302  0.1169E+01  0.4063E+01
   1.312  0.1177E+01  0.4074E+01
   1.322  0.1184E+01  0.4086E+01
   1.332  0.1189E+01  0.4098E+01
   1.342  0.1193E+01  0.4110E+01
   1.352  0.1195E+01  0.4122E+01
   1.362  0.1195E+01  0.4134E+01
   1.372  0.1193E+01  0.4146E+01
   1.382  0.1190E+01  0.4158E+01
   1.392  0.1185E+01  0.4170E+01
   1.402  0.1178E+01  0.4181E+01
   1.412  0.1170E+01  0.4193E+01
   1.422  0.1161E+01  0.4205E+01
   1.432  0.1151E+01  0.4216E+01
   1.442  0.1140E+01  0.4228E+01
   1.452  0.1127E+01  0.4239E+01
   1.462  0.1114E+01  0.4250E+01
   1.472  0.1100E+01  0.4261E+01
   1.482  0.1086E+01  0.4272E+01
   1.492  0.1072E+01  0.4283E+01
   1.502  0.1057E+01  0.4293E+01
   1.512  0.1042E+01  0.4304E+01
   1.522  0.1028E+01  0.4314E+01
   1.532  0.1014E+01  0.4324E+01
   1.542  0.1001E+01  0.4334E+01
   1.552  0.9891E+00  0.4344E+01
   1.562  0.9781E+00  0.4354E+01
   1.572  0.9686E+00  0.4363E+01
   1.582  0.9607E+00  0.4373E+01
   1.592  0.9547E+00  0.4383E+01
   1.602  0.9506E+00  0.4392E+01
   1.612  0.9485E+00  0.4402E+01
   1.622  0.9485E+00  0.4411E+01
   1.632  0.9505E+00  0.4421E+01
   1.642  0.9546E+00  0.4430E+01
   1.652  0.9605E+00  0.4440E+01
   1.662  0.9681E+00  0.4449E+01
   1.672  0.9771E+00  0.4459E+01
   1.682  0.9872E+00  0.4469E+01
   1.692  0.9982E+00  0.4479E+01
   1.702  0.1010E+01  0.4489E+01
   1.712  0.1021E+01  0.4499E+01
   1.722  0.1033E+01  0.4510E+01
   1.732  0.1043E+01  0.4520E+01
   1.742  0.1053E+01  0.4531E+01
   1.752  0.1062E+01  0.4541E+01
   1.762  0.1069E+01  0.4552E+01
   1.772  0.1075E+01  0.4563E+01
   1.782  0.1079E+01  0.4573E+01
   1.792  0.1082E+01  0.4584E+01
   1.802  0.1082E+01  0.4595E+01
   1.812  0.1081E+01  0.4606E+01
   1.822  0.1078E+01  0.4617E+01
   1.832  0.1074E+01  0.4627E+01
   1.842  0.1068E+01  0.4638E+01
   1.852  0.1062E+01  0.4649E+01
   1.862  0.1055E+01  0.4659E+01
   1.872  0.1047E+01  0.4670E+01
   1.882  0.1039E+01  0.4680E+01
   1.892  0.1032E+01  0.4690E+01
   1.902  0.1025E+01  0.4701E+01
   1.912  0.1019E+01  0.4711E+01
   1.922  0.1013E+01  0.4721E+01
   1.932  0.1009E+01  0.4731E+01
   1.942  0.1006E+01  0.4741E+01
   1.952  0.1005E+01  0.4751E+01
   1.962  0.1005E+01  0.4761E+01
   1.972  0.1006E+01  0.4771E+01
   1.982  0.1009E+01  0.4781E+01
   1.992  0.1013E+01  0.4792E+01
   2.002  0.1019E+01  0.4802E+01
   2.012  0.1025E+01  0.4812E+01
   2.022  0.1032E+01  0.4822E+01
   2.032  0.1040E+01  0.4833E+01
   2.042  0.1049E+01  0.4843E+01
   2.052  0.1058E+01  0.4854E+01
   2.062  0.1067E+01  0.4864E+01
   2.072  0.1076E+01  0.4875E+01
   2.082  0.1086E+01  0.4886E+01
   2.092  0.1096E+01  0.4897E+01
   2.102  0.1105E+01  0.4908E+01
   2.112  0.1115E+01  0.4919E+01
   2.122  0.1125E+01  0.4930E+01
   2.132  0.1135E+01  0.4942E+01
   2.142  0.1145E+01  0.4953E+01
   2.152  0.1156E+01  0.4965E+01
   2.162  0.1166E+01  0.4977E+01
   2.172  0.1176E+01  0.4988E+01
   2.182  0.1186E+01  0.5000E+01
   2.192  0.1196E+01  0.5012E+01
   2.202  0.1206E+01  0.5024E+01
   2.212  0.1215E+01  0.5036E+01
   2.222  0.1224E+01  0.5049E+01
   2.232  0.1233E+01  0.5061E+01
   2.242  0.1240E+01  0.5073E+01
   2.252  0.1247E+01  0.5086E+01
   2.262  0.1253E+01  0.5098E+01
   2.272  0.1259E+01  0.5111E+01
   2.282  0.1264E+01  0.5124E+01
   2.292  0.1268E+01  0.5136E+01
   2.302  0.1272E+01  0.5149E+01
   2.312  0.1276E+01  0.5162E+01
   2.322  0.1280E+01  0.5174E+01
   2.332  0.1285E+01  0.5187E+01
   2.342  0.1289E+01  0.5200E+01
   2.352  0.1295E+01  0.5213E+01
   2.362  0.1301E+01  0.5226E+01
   2.372  0.1309E+01  0.5239E+01
   2.382  0.1317E+01  0.5252E+01
   2.392  0.1327E+01  0.5266E+01
   2.402  0.1338E+01  0.5279E+01
   2.412  0.1351E+01  0.5293E+01
   2.422  0.1364E+01  0.5306E+01
   2.432  0.1379E+01  0.5320E+01
   2.442  0.1394E+01  0.5334E+01
   2.452  0.1410E+01  0.5348E+01
   2.462  0.1426E+01  0.5362E+01
   2.472  0.1442E+01  0.5377E+01
   2.482  0.1458E+01  0.5391E+01
   2.492  0.1473E+01  0.5406E+01
   2.502  0.1488E+01  0.5421E+01
   2.512  0.1501E+01  0.5436E+01
   2.522  0.1513E+01  0.5451E+01
   2.532  0.1523E+01  0.5466E+01
   2.542  0.1531E+01  0.5482E+01
   2.552  0.1538E+01  0.5497E+01
   2.562  0.1542E+01  0.5512E+01
   2.572  0.1544E+01  0.5528E+01
   2.582  0.1544E+01  0.5543E+01
   2.592  0.1541E+01  0.5559E+01
   2.602  0.1537E+01  0.5574E+01
   2.612  0.1530E+01  0.5589E+01
   2.622  0.1522E+01  0.5605E+01
   2.632  0.1512E+01  0.5620E+01
   2.642  0.1501E+01  0.5635E+01
   2.652  0.1489E+01  0.5650E+01
   2.662  0.1477E+01  0.5664E+01
   2.672  0.1464E+01  0.5679E+01
   2.682  0.1452E+01  0.5694E+01
   2.692  0.1441E+01  0.5708E+01
   2.702  0.1431E+01  0.5722E+01
   2.712  0.1423E+01  0.5737E+01
   2.722  0.1417E+01  0.5751E+01
   2.732  0.1413E+01  0.5765E+01
   2.742  0.1412E+01  0.5779E+01
   2.752  0.1413E+01  0.5793E+01
   2.762  0.1416E+01  0.5807E+01
   2.772  0.1422E+01  0.5821E+01
   2.782  0.1429E+01  0.5836E+01
   2.792  0.1438E+01  0.5850E+01
   2.802  0.1448E+01  0.5865E+01
   2.812  0.1459E+01  0.5879E+01
   2.822  0.1470E+01  0.5894E+01
   2.832  0.1480E+01  0.5909E+01
   2.842  0.1489E+01  0.5924E+01
   2.852  0.1496E+01  0.5939E+01
   2.862  0.1501E+01  0.5954E+01
   2.872  0.1504E+01  0.5969E+01
   2.882  0.1503E+01  0.5984E+01
   2.892  0.1500E+01  0.5999E+01
   2.902  0.1494E+01  0.6014E+01
   2.912  0.1485E+01  0.6028E+01
   2.922  0.1473E+01  0.6043E+01
   2.932  0.1459E+01  0.6058E+01
   2.942  0.1443E+01  0.6072E+01
   2.952  0.1426E+01  0.6086E+01
   2.962  0.1409E+01  0.6101E+01
   2.972  0.1391E+01  0.6114E+01
   2.982  0.1373E+01  0.6128E+01
   2.992  0.1357E+01  0.6142E+01
   3.002  0.1342E+01  0.6155E+01
   3.012  0.1329E+01  0.6168E+01
   3.022  0.1318E+01  0.6182E+01
   3.032  0.1309E+01  0.6195E+01
   3.042  0.1302E+01  0.6208E+01
   3.052  0.1298E+01  0.6221E+01
   3.062  0.1295E+01  0.6234E+01
   3.072  0.1295E+01  0.6247E+01
   3.082  0.1296E+01  0.6260E+01
   3.092  0.1298E+01  0.6273E+01
   3.102  0.1302E+01  0.6286E+01
   3.112  0.1306E+01  0.6299E+01
   3.122  0.1310E+01  0.6312E+01
   3.132  0.1315E+01  0.6325E+01
   3.142  0.1320E+01  0.6338E+01
   3.152  0.1325E+01  0.6351E+01
   3.162  0.1330E+01  0.6365E+01
   3.172  0.1335E+01  0.6378E+01
   3.182  0.1340E+01  0.6391E+01
   3.192  0.1345E+01  0.6405E+01
   3.202  0.1350E+01  0.6418E+01
   3.212  0.1355E+01  0.6432E+01
   3.222  0.1361E+01  0.6445E+01
   3.232  0.1367E+01  0.6459E+01
   3.242  0.1372E+01  0.6473E+01
   3.252  0.1378E+01  0.6487E+01
   3.262  0.1384E+01  0.6500E+01
   3.272  0.1390E+01  0.6514E+01
   3.282  0.1395E+01  0.6528E+01
   3.292  0.1400E+01  0.6542E+01
   3.302  0.1404E+01  0.6556E+01
   3.312  0.1406E+01  0.6570E+01
   3.322  0.1408E+01  0.6585E+01
   3.332  0.1408E+01  0.6599E+01
   3.342  0.1406E+01  0.6613E+01
   3.352  0.1403E+01  0.6627E+01
   3.362  0.1399E+01  0.6641E+01
   3.372  0.1392E+01  0.6655E+01
   3.382  0.1385E+01  0.6668E+01
   3.392  0.1376E+01  0.6682E+01
   3.402  0.1366E+01  0.6696E+01
   3.412  0.1356E+01  0.6709E+01
   3.422  0.1345E+01  0.6723E+01
   3.432  0.1333E+01  0.6736E+01
   3.442  0.1321E+01  0.6749E+01
   3.452  0.1310E+01  0.6763E+01
   3.462  0.1298E+01  0.6776E+01
   3.472  0.1287E+01  0.6788E+01
   3.482  0.1276E+01  0.6801E+01
   3.492  0.1266E+01  0.6814E+01
   3.502  0.1256E+01  0.6826E+01
   3.512  0.1246E+01  0.6839E+01
   3.522  0.1237E+01  0.6851E+01
   3.532  0.1228E+01  0.6863E+01
   3.542  0.1220E+01  0.6876E+01
   3.552  0.1212E+01  0.6888E+01
   3.562  0.1205E+01  0.6900E+01
   3.572  0.1198E+01  0.6912E+01
   3.582  0.1193E+01  0.6924E+01
   3.592  0.1188E+01  0.6936E+01
   3.602  0.1185E+01  0.6948E+01
   3.612  0.1184E+01  0.6959E+01
   3.622  0.1184E+01  0.6971E+01
   3.632  0.1185E+01  0.6983E+01
   3.642  0.1188E+01  0.6995E+01
   3.652  0.1193E+01  0.7007E+01
   3.662  0.1200E+01  0.7019E+01
   3.672  0.1208E+01  0.7031E+01
   3.682  0.1216E+01  0.7043E+01
   3.692  0.1226E+01  0.7055E+01
   3.702  0.1236E+01  0.7068E+01
   3.712  0.1246E+01  0.7080E+01
   3.722  0.1256E+01  0.7093E+01
   3.732  0.1265E+01  0.7105E+01
   3.742  0.1273E+01  0.7118E+01
   3.752  0.1279E+01  0.7131E+01
   3.762  0.1284E+01  0.7144E+01
   3.772  0.1287E+01  0.7157E+01
   3.782  0.1288E+01  0.7169E+01
   3.792  0.1287E+01  0.7182E+01
   3.802  0.1284E+01  0.7195E+01
   3.812  0.1280E+01  0.7208E+01
   3.822  0.1274E+01  0.7221E+01
   3.832  0.1266E+01  0.7233E+01
   3.842  0.1258E+01  0.7246E+01
   3.852  0.1248E+01  0.7258E+01
   3.862  0.1238E+01  0.7271E+01
   3.872  0.1228E+01  0.7283E+01
   3.882  0.1217E+01  0.7295E+01
   3.892  0.1207E+01  0.7307E+01
   3.902  0.1197E+01  0.7319E+01
   3.912  0.1186E+01  0.7331E+01
   3.922  0.1176E+01  0.7343E+01
   3.932  0.1166E+01  0.7355E+01
   3.942  0.1157E+01  0.7366E+01
   3.952  0.1147E+01  0.7378E+01
   3.962  0.1137E+01  0.7389E+01
   3.972  0.1126E+01  0.7400E+01
   3.982  0.1115E+01  0.7411E+01
   3.992  0.1104E+01  0.7422E+01
   4.002  0.1092E+01  0.7433E+01
   4.012  0.1080E+01  0.7444E+01
   4.022  0.1066E+01  0.7455E+01
   4.032  0.1053E+01  0.7465E+01
   4.042  0.1038E+01  0.7476E+01
   4.052  0.1024E+01  0.7486E+01
   4.062  0.1009E+01  0.7496E+01
   4.072  0.9932E+00  0.7506E+01
   4.082  0.9777E+00  0.7516E+01
   4.092  0.9622E+00  0.7525E+01
   4.102  0.9468E+00  0.7535E+01
   4.112  0.9316E+00  0.7544E+01
   4.122  0.9166E+00  0.7553E+01
   4.132  0.9018E+00  0.7562E+01
   4.142  0.8873E+00  0.7571E+01
   4.152  0.8731E+00  0.7580E+01
   4.162  0.8592E+00  0.7589E+01
   4.172  0.8454E+00  0.7597E+01
   4.182  0.8318E+00  0.7605E+01
   4.192  0.8183E+00  0.7614E+01
   4.202  0.8048E+00  0.7622E+01
   4.212  0.7913E+00  0.7629E+01
   4.222  0.7778E+00  0.7637E+01
   4.232  0.7642E+00  0.7645E+01
   4.242  0.7506E+00  0.7652E+01
   4.252  0.7369E+00  0.7660E+01
   4.262  0.7232E+00  0.7667E+01
   4.272  0.7096E+00  0.7674E+01
   4.282  0.6961E+00  0.7681E+01
   4.292  0.6827E+00  0.7688E+01
   4.302  0.6696E+00  0.7695E+01
   4.312  0.6568E+00  0.7701E+01
   4.322  0.6444E+00  0.7708E+01
   4.332  0.6325E+00  0.7714E+01
   4.342  0.6211E+00  0.7720E+01
   4.352  0.6102E+00  0.7726E+01
   4.362  0.6000E+00  0.7732E+01
   4.372  0.5904E+00  0.7738E+01
   4.382  0.5813E+00  0.7744E+01
   4.392  0.5728E+00  0.7750E+01
   4.402  0.5648E+00  0.7755E+01
   4.412  0.5573E+00  0.7761E+01
   4.422  0.5501E+00  0.7766E+01
   4.432  0.5432E+00  0.7772E+01
   4.442  0.5365E+00  0.7777E+01
   4.452  0.5300E+00  0.7783E+01
   4.462  0.5236E+00  0.7788E+01
   4.472  0.5172E+00  0.7793E+01
   4.482  0.5109E+00  0.7798E+01
   4.492  0.5045E+00  0.7803E+01
   4.502  0.4980E+00  0.7808E+01
   4.512  0.4916E+00  0.7813E+01
   4.522  0.4851E+00  0.7818E+01
   4.532  0.4786E+00  0.7823E+01
   4.542  0.4722E+00  0.7827E+01
   4.552  0.4659E+00  0.7832E+01
   4.562  0.4596E+00  0.7837E+01
   4.572  0.4533E+00  0.7841E+01
   4.582  0.4472E+00  0.7846E+01
   4.592  0.4412E+00  0.7850E+01
   4.602  0.4352E+00  0.7854E+01
   4.612  0.4292E+00  0.7859E+01
   4.622  0.4233E+00  0.7863E+01
   4.632  0.4172E+00  0.7867E+01
   4.642  0.4111E+00  0.7871E+01
   4.652  0.4049E+00  0.7875E+01
   4.662  0.3986E+00  0.7879E+01
   4.672  0.3921E+00  0.7883E+01
   4.682  0.3855E+00  0.7887E+01
   4.692  0.3788E+00  0.7891E+01
   4.702  0.3720E+00  0.7894E+01
   4.712  0.3652E+00  0.7898E+01
   4.722  0.3584E+00  0.7902E+01
   4.732  0.3517E+00  0.7905E+01
   4.742  0.3451E+00  0.7909E+01
   4.752  0.3387E+00  0.7912E+01
   4.762  0.3325E+00  0.7915E+01
   4.772  0.3266E+00  0.7919E+01
   4.782  0.3210E+00  0.7922E+01
   4.792  0.3156E+00  0.7925E+01
   4.802  0.3105E+00  0.7928E+01
   4.812  0.3055E+00  0.7931E+01
   4.822  0.3006E+00  0.7934E+01
   4.832  0.2958E+00  0.7937E+01
   4.842  0.2909E+00  0.7940E+01
   4.852  0.2859E+00  0.7943E+01
   4.862  0.2807E+00  0.7946E+01
   4.872  0.2752E+00  0.7948E+01
   4.882  0.2694E+00  0.7951E+01
   4.892  0.2633E+00  0.7954E+01
   4.902  0.2568E+00  0.7956E+01
   4.912  0.2499E+00  0.7959E+01
   4.922  0.2427E+00  0.7961E+01
   4.932  0.2351E+00  0.7964E+01
   4.942  0.2272E+00  0.7966E+01
   4.952  0.2191E+00  0.7968E+01
   4.962  0.2109E+00  0.7970E+01
   4.972  0.2025E+00  0.7972E+01
   4.982  0.1941E+00  0.7974E+01
   4.992  0.1857E+00  0.7976E+01
   5.002  0.1773E+00  0.7978E+01
   5.012  0.1690E+00  0.7980E+01
   5.022  0.1608E+00  0.7981E+01
   5.032  0.1527E+00  0.7983E+01
   5.042  0.1448E+00  0.7984E+01
   5.052  0.1370E+00  0.7985E+01
   5.062  0.1294E+00  0.7987E+01
   5.072  0.1219E+00  0.7988E+01
   5.082  0.1146E+00  0.7989E+01
   5.092  0.1074E+00  0.7990E+01
   5.102  0.1004E+00  0.7991E+01
   5.112  0.9347E-01  0.7992E+01
   5.122  0.8671E-01  0.7993E+01
   5.132  0.8010E-01  0.7994E+01
   5.142  0.7367E-01  0.7995E+01
   5.152  0.6743E-01  0.7995E+01
   5.162  0.6140E-01  0.7996E+01
   5.172  0.5561E-01  0.7996E+01
   5.182  0.5006E-01  0.7997E+01
   5.192  0.4479E-01  0.7997E+01
   5.202  0.3982E-01  0.7998E+01
   5.212  0.3516E-01  0.7998E+01
   5.222  0.3083E-01  0.7998E+01
   5.232  0.2683E-01  0.7999E+01
   5.242  0.2318E-01  0.7999E+01
   5.252  0.1987E-01  0.7999E+01
   5.262  0.1690E-01  0.7999E+01
   5.272  0.1426E-01  0.7999E+01
   5.282  0.1192E-01  0.8000E+01
   5.292  0.9891E-02  0.8000E+01
   5.302  0.8133E-02  0.8000E+01
   5.312  0.6628E-02  0.8000E+01
   5.322  0.5354E-02  0.8000E+01
   5.332  0.4286E-02  0.8000E+01
   5.342  0.3399E-02  0.8000E+01
   5.352  0.2671E-02  0.8000E+01
   5.362  0.2079E-02  0.8000E+01
   5.372  0.1603E-02  0.8000E+01
   5.382  0.1225E-02  0.8000E+01
   5.392  0.9264E-03  0.8000E+01
   5.402  0.6940E-03  0.8000E+01
   5.412  0.5148E-03  0.8000E+01
   5.422  0.3782E-03  0.8000E+01
   5.432  0.2751E-03  0.8000E+01
   5.442  0.1981E-03  0.8000E+01
   5.452  0.1413E-03  0.8000E+01
   5.462  0.9976E-04  0.8000E+01
   5.472  0.6973E-04  0.8000E+01
   5.482  0.4825E-04  0.8000E+01
   5.492  0.3306E-04  0.8000E+01
   5.502  0.2242E-04  0.8000E+01
   5.512  0.1505E-04  0.8000E+01
   5.522  0.1000E-04  0.8000E+01
   5.532  0.6580E-05  0.8000E+01
   5.542  0.4285E-05  0.8000E+01
   5.552  0.2762E-05  0.8000E+01
   5.562  0.1762E-05  0.8000E+01
   5.572  0.1113E-05  0.8000E+01
   5.582  0.6959E-06  0.8000E+01
   5.592  0.4306E-06  0.8000E+01
   5.602  0.2637E-06  0.8000E+01
   5.612  0.1599E-06  0.8000E+01
   5.622  0.9595E-07  0.8000E+01
   5.632  0.5699E-07  0.8000E+01
   5.642  0.3350E-07  0.8000E+01
   5.652  0.1949E-07  0.8000E+01
   5.662  0.1123E-07  0.8000E+01
   5.672  0.6400E-08  0.8000E+01
   5.682  0.3611E-08  0.8000E+01
   5.692  0.2016E-08  0.8000E+01
   5.702  0.1114E-08  0.8000E+01
   5.712  0.6095E-09  0.8000E+01
   5.722  0.3300E-09  0.8000E+01
   5.732  0.1768E-09  0.8000E+01
   5.742  0.9378E-10  0.8000E+01
   5.752  0.4922E-10  0.8000E+01
   5.762  0.2557E-10  0.8000E+01
   5.772  0.1315E-10  0.8000E+01
   5.782  0.6691E-11  0.8000E+01
   5.792  0.3372E-11  0.8000E+01
   5.802  0.1687E-11  0.8000E+01
   5.812  0.8443E-12  0.8000E+01
   5.822  0.4388E-12  0.8000E+01
   5.832  0.2684E-12  0.8000E+01
   5.842  0.2469E-12  0.8000E+01
   5.852  0.3630E-12  0.8000E+01
   5.862  0.6762E-12  0.8000E+01
   5.872  0.1343E-11  0.8000E+01
   5.882  0.2688E-11  0.8000E+01
   5.892  0.5348E-11  0.8000E+01
   5.902  0.1054E-10  0.8000E+01
   5.912  0.2054E-10  0.8000E+01
   5.922  0.3964E-10  0.8000E+01
   5.932  0.7568E-10  0.8000E+01
   5.942  0.1430E-09  0.8000E+01
   5.952  0.2673E-09  0.8000E+01
   5.962  0.4946E-09  0.8000E+01
   5.972  0.9055E-09  0.8000E+01
   5.982  0.1640E-08  0.8000E+01
   5.992  0.2941E-08  0.8000E+01
   6.002  0.5218E-08  0.8000E+01
   6.012  0.9163E-08  0.8000E+01
   6.022  0.1592E-07  0.8000E+01
   6.032  0.2738E-07  0.8000E+01
   6.042  0.4661E-07  0.8000E+01
   6.052  0.7851E-07  0.8000E+01
   6.062  0.1309E-06  0.8000E+01
   6.072  0.2160E-06  0.8000E+01
   6.082  0.3528E-06  0.8000E+01
   6.092  0.5704E-06  0.8000E+01
   6.102  0.9128E-06  0.8000E+01
   6.112  0.1446E-05  0.8000E+01
   6.122  0.2267E-05  0.8000E+01
   6.132  0.3520E-05  0.8000E+01
   6.142  0.5409E-05  0.8000E+01
   6.152  0.8230E-05  0.8000E+01
   6.162  0.1240E-04  0.8000E+01
   6.172  0.1849E-04  0.8000E+01
   6.182  0.2730E-04  0.8000E+01
   6.192  0.3993E-04  0.8000E+01
   6.202  0.5782E-04  0.8000E+01
   6.212  0.8291E-04  0.8000E+01
   6.222  0.1177E-03  0.8000E+01
   6.232  0.1656E-03  0.8000E+01
   6.242  0.2307E-03  0.8000E+01
   6.252  0.3184E-03  0.8000E+01
   6.262  0.4352E-03  0.8000E+01
   6.272  0.5893E-03  0.8000E+01
   6.282  0.7907E-03  0.8000E+01
   6.292  0.1051E-02  0.8000E+01
   6.302  0.1384E-02  0.8000E+01
   6.312  0.1807E-02  0.8000E+01
   6.322  0.2338E-02  0.8000E+01
   6.332  0.2997E-02  0.8000E+01
   6.342  0.3808E-02  0.8000E+01
   6.352  0.4798E-02  0.8000E+01
   6.362  0.5992E-02  0.8000E+01
   6.372  0.7419E-02  0.8000E+01
   6.382  0.9109E-02  0.8000E+01
   6.392  0.1109E-01  0.8001E+01
   6.402  0.1339E-01  0.8001E+01
   6.412  0.1604E-01  0.8001E+01
   6.422  0.1906E-01  0.8001E+01
   6.432  0.2248E-01  0.8001E+01
   6.442  0.2629E-01  0.8002E+01
   6.452  0.3053E-01  0.8002E+01
   6.462  0.3519E-01  0.8002E+01
   6.472  0.4026E-01  0.8003E+01
   6.482  0.4574E-01  0.8003E+01
   6.492  0.5162E-01  0.8004E+01
   6.502  0.5787E-01  0.8004E+01
   6.512  0.6446E-01  0.8005E+01
   6.522  0.7137E-01  0.8005E+01
   6.532  0.7857E-01  0.8006E+01
   6.542  0.8602E-01  0.8007E+01
   6.552  0.9369E-01  0.8008E+01
   6.562  0.1016E+00  0.8009E+01
   6.572  0.1096E+00  0.8010E+01
   6.582  0.1178E+00  0.8011E+01
   6.592  0.1261E+00  0.8013E+01
   6.602  0.1346E+00  0.8014E+01
   6.612  0.1432E+00  0.8015E+01
   6.622  0.1519E+00  0.8017E+01
   6.632  0.1608E+00  0.8019E+01
   6.642  0.1699E+00  0.8020E+01
   6.652  0.1792E+00  0.8022E+01
   6.662  0.1887E+00  0.8024E+01
   6.672  0.1985E+00  0.8026E+01
   6.682  0.2086E+00  0.8028E+01
   6.692  0.2190E+00  0.8030E+01
   6.702  0.2298E+00  0.8032E+01
   6.712  0.2409E+00  0.8035E+01
   6.722  0.2524E+00  0.8037E+01
   6.732  0.2643E+00  0.8040E+01
   6.742  0.2766E+00  0.8043E+01
   6.752  0.2893E+00  0.8046E+01
   6.762  0.3024E+00  0.8049E+01
   6.772  0.3158E+00  0.8052E+01
   6.782  0.3295E+00  0.8055E+01
   6.792  0.3435E+00  0.8059E+01
   6.802  0.3576E+00  0.8062E+01
   6.812  0.3718E+00  0.8066E+01
   6.822  0.3859E+00  0.8070E+01
   6.832  0.3999E+00  0.8074E+01
   6.842  0.4137E+00  0.8078E+01
   6.852  0.4271E+00  0.8082E+01
   6.862  0.4399E+00  0.8087E+01
   6.872  0.4522E+00  0.8091E+01
   6.882  0.4638E+00  0.8096E+01
   6.892  0.4746E+00  0.8100E+01
   6.902  0.4845E+00  0.8105E+01
   6.912  0.4935E+00  0.8110E+01
   6.922  0.5016E+00  0.8115E+01
   6.932  0.5089E+00  0.8120E+01
   6.942  0.5153E+00  0.8126E+01
   6.952  0.5209E+00  0.8131E+01
   6.962  0.5259E+00  0.8136E+01
   6.972  0.5303E+00  0.8141E+01
   6.982  0.5342E+00  0.8147E+01
   6.992  0.5378E+00  0.8152E+01
   7.002  0.5413E+00  0.8157E+01
   7.012  0.5448E+00  0.8163E+01
   7.022  0.5483E+00  0.8168E+01
   7.032  0.5521E+00  0.8174E+01
   7.042  0.5563E+00  0.8179E+01
   7.052  0.5610E+00  0.8185E+01
   7.062  0.5661E+00  0.8191E+01
   7.072  0.5720E+00  0.8196E+01
   7.082  0.5784E+00  0.8202E+01
   7.092  0.5856E+00  0.8208E+01
   7.102  0.5935E+00  0.8214E+01
   7.112  0.6021E+00  0.8220E+01
   7.122  0.6115E+00  0.8226E+01
   7.132  0.6214E+00  0.8232E+01
   7.142  0.6321E+00  0.8239E+01
   7.152  0.6432E+00  0.8245E+01
   7.162  0.6549E+00  0.8252E+01
   7.172  0.6670E+00  0.8258E+01
   7.182  0.6794E+00  0.8265E+01
   7.192  0.6921E+00  0.8272E+01
   7.202  0.7049E+00  0.8279E+01
   7.212  0.7179E+00  0.8286E+01
   7.222  0.7309E+00  0.8294E+01
   7.232  0.7439E+00  0.8301E+01
   7.242  0.7569E+00  0.8309E+01
   7.252  0.7698E+00  0.8316E+01
   7.262  0.7826E+00  0.8324E+01
   7.272  0.7954E+00  0.8332E+01
   7.282  0.8081E+00  0.8340E+01
   7.292  0.8207E+00  0.8348E+01
   7.302  0.8334E+00  0.8357E+01
   7.312  0.8460E+00  0.8365E+01
   7.322  0.8587E+00  0.8374E+01
   7.332  0.8715E+00  0.8382E+01
   7.342  0.8844E+00  0.8391E+01
   7.352  0.8973E+00  0.8400E+01
   7.362  0.9104E+00  0.8409E+01
   7.372  0.9235E+00  0.8419E+01
   7.382  0.9367E+00  0.8428E+01
   7.392  0.9499E+00  0.8437E+01
   7.402  0.9631E+00  0.8447E+01
   7.412  0.9763E+00  0.8457E+01
   7.422  0.9894E+00  0.8467E+01
   7.432  0.1002E+01  0.8477E+01
   7.442  0.1015E+01  0.8487E+01
   7.452  0.1028E+01  0.8497E+01
   7.462  0.1040E+01  0.8508E+01
   7.472  0.1052E+01  0.8518E+01
   7.482  0.1064E+01  0.8529E+01
   7.492  0.1075E+01  0.8540E+01
   7.502  0.1087E+01  0.8550E+01
   7.512  0.1098E+01  0.8561E+01
   7.522  0.1109E+01  0.8572E+01
   7.532  0.1119E+01  0.8584E+01
   7.542  0.1130E+01  0.8595E+01
   7.552  0.1142E+01  0.8606E+01
   7.562  0.1153E+01  0.8618E+01
   7.572  0.1165E+01  0.8630E+01
   7.582  0.1178E+01  0.8641E+01
   7.592  0.1192E+01  0.8653E+01
   7.602  0.1207E+01  0.8665E+01
   7.612  0.1223E+01  0.8678E+01
   7.622  0.1241E+01  0.8690E+01
   7.632  0.1259E+01  0.8703E+01
   7.642  0.1280E+01  0.8715E+01
   7.652  0.1301E+01  0.8728E+01
   7.662  0.1323E+01  0.8742E+01
   7.672  0.1346E+01  0.8755E+01
   7.682  0.1370E+01  0.8769E+01
   7.692  0.1394E+01  0.8783E+01
   7.702  0.1417E+01  0.8797E+01
   7.712  0.1440E+01  0.8811E+01
   7.722  0.1462E+01  0.8826E+01
   7.732  0.1482E+01  0.8841E+01
   7.742  0.1501E+01  0.8856E+01
   7.752  0.1518E+01  0.8871E+01
   7.762  0.1533E+01  0.8886E+01
   7.772  0.1547E+01  0.8902E+01
   7.782  0.1558E+01  0.8917E+01
   7.792  0.1568E+01  0.8933E+01
   7.802  0.1576E+01  0.8949E+01
   7.812  0.1582E+01  0.8965E+01
   7.822  0.1588E+01  0.8980E+01
   7.832  0.1592E+01  0.8996E+01
   7.842  0.1596E+01  0.9012E+01
   7.852  0.1600E+01  0.9028E+01
   7.862  0.1603E+01  0.9044E+01
   7.872  0.1605E+01  0.9060E+01
   7.882  0.1607E+01  0.9076E+01
   7.892  0.1608E+01  0.9093E+01
   7.902  0.1608E+01  0.9109E+01
   7.912  0.1607E+01  0.9125E+01
   7.922  0.1605E+01  0.9141E+01
   7.932  0.1601E+01  0.9157E+01
   7.942  0.1594E+01  0.9173E+01
   7.952  0.1586E+01  0.9189E+01
   7.962  0.1575E+01  0.9204E+01
   7.972  0.1562E+01  0.9220E+01
   7.982  0.1547E+01  0.9235E+01
   7.992  0.1529E+01  0.9251E+01
   8.002  0.1509E+01  0.9266E+01
   8.012  0.1488E+01  0.9281E+01
   8.022  0.1465E+01  0.9295E+01
   8.032  0.1442E+01  0.9310E+01
   8.042  0.1419E+01  0.9324E+01
   8.052  0.1396E+01  0.9338E+01
   8.062  0.1375E+01  0.9352E+01
   8.072  0.1355E+01  0.9365E+01
   8.082  0.1337E+01  0.9379E+01
   8.092  0.1321E+01  0.9392E+01
   8.102  0.1308E+01  0.9405E+01
   8.112  0.1298E+01  0.9418E+01
   8.122  0.1291E+01  0.9431E+01
   8.132  0.1286E+01  0.9444E+01
   8.142  0.1285E+01  0.9456E+01
   8.152  0.1286E+01  0.9469E+01
   8.162  0.1289E+01  0.9482E+01
   8.172  0.1293E+01  0.9495E+01
   8.182  0.1299E+01  0.9508E+01
   8.192  0.1306E+01  0.9521E+01
   8.202  0.1313E+01  0.9534E+01
   8.212  0.1320E+01  0.9547E+01
   8.222  0.1326E+01  0.9561E+01
   8.232  0.1332E+01  0.9574E+01
   8.242  0.1336E+01  0.9587E+01
   8.252  0.1338E+01  0.9601E+01
   8.262  0.1339E+01  0.9614E+01
   8.272  0.1338E+01  0.9628E+01
   8.282  0.1335E+01  0.9641E+01
   8.292  0.1331E+01  0.9654E+01
   8.302  0.1324E+01  0.9667E+01
   8.312  0.1316E+01  0.9681E+01
   8.322  0.1306E+01  0.9694E+01
   8.332  0.1295E+01  0.9707E+01
   8.342  0.1283E+01  0.9719E+01
   8.352  0.1269E+01  0.9732E+01
   8.362  0.1254E+01  0.9745E+01
   8.372  0.1238E+01  0.9757E+01
   8.382  0.1221E+01  0.9769E+01
   8.392  0.1203E+01  0.9781E+01
   8.402  0.1184E+01  0.9793E+01
   8.412  0.1164E+01  0.9805E+01
   8.422  0.1144E+01  0.9816E+01
   8.432  0.1123E+01  0.9827E+01
   8.442  0.1102E+01  0.9838E+01
   8.452  0.1080E+01  0.9849E+01
   8.462  0.1057E+01  0.9860E+01
   8.472  0.1034E+01  0.9870E+01
   8.482  0.1011E+01  0.9880E+01
   8.492  0.9875E+00  0.9890E+01
   8.502  0.9644E+00  0.9900E+01
   8.512  0.9415E+00  0.9909E+01
   8.522  0.9191E+00  0.9918E+01
   8.532  0.8974E+00  0.9927E+01
   8.542  0.8766E+00  0.9936E+01
   8.552  0.8569E+00  0.9945E+01
   8.562  0.8385E+00  0.9953E+01
   8.572  0.8216E+00  0.9961E+01
   8.582  0.8064E+00  0.9969E+01
   8.592  0.7929E+00  0.9977E+01
   8.602  0.7813E+00  0.9985E+01
   8.612  0.7717E+00  0.9993E+01
   8.622  0.7642E+00  0.1000E+02
   8.632  0.7587E+00  0.1001E+02
   8.642  0.7555E+00  0.1002E+02
   8.652  0.7544E+00  0.1002E+02
   8.662  0.7555E+00  0.1003E+02
   8.672  0.7587E+00  0.1004E+02
   8.682  0.7639E+00  0.1005E+02
   8.692  0.7710E+00  0.1005E+02
   8.702  0.7799E+00  0.1006E+02
   8.712  0.7903E+00  0.1007E+02
   8.722  0.8021E+00  0.1008E+02
   8.732  0.8150E+00  0.1009E+02
   8.742  0.8285E+00  0.1009E+02
   8.752  0.8424E+00  0.1010E+02
   8.762  0.8563E+00  0.1011E+02
   8.772  0.8698E+00  0.1012E+02
   8.782  0.8824E+00  0.1013E+02
   8.792  0.8938E+00  0.1014E+02
   8.802  0.9036E+00  0.1015E+02
   8.812  0.9115E+00  0.1016E+02
   8.822  0.9173E+00  0.1016E+02
   8.832  0.9206E+00  0.1017E+02
   8.842  0.9215E+00  0.1018E+02
   8.852  0.9199E+00  0.1019E+02
   8.862  0.9159E+00  0.1020E+02
   8.872  0.9096E+00  0.1021E+02
   8.882  0.9013E+00  0.1022E+02
   8.892  0.8914E+00  0.1023E+02
   8.902  0.8803E+00  0.1024E+02
   8.912  0.8685E+00  0.1025E+02
   8.922  0.8563E+00  0.1025E+02
   8.932  0.8444E+00  0.1026E+02
   8.942  0.8333E+00  0.1027E+02
   8.952  0.8234E+00  0.1028E+02
   8.962  0.8151E+00  0.1029E+02
   8.972  0.8088E+00  0.1030E+02
   8.982  0.8048E+00  0.1030E+02
   8.992  0.8033E+00  0.1031E+02
   9.002  0.8044E+00  0.1032E+02
   9.012  0.8081E+00  0.1033E+02
   9.022  0.8143E+00  0.1034E+02
   9.032  0.8229E+00  0.1034E+02
   9.042  0.8337E+00  0.1035E+02
   9.052  0.8463E+00  0.1036E+02
   9.062  0.8604E+00  0.1037E+02
   9.072  0.8756E+00  0.1038E+02
   9.082  0.8915E+00  0.1039E+02
   9.092  0.9076E+00  0.1040E+02
   9.102  0.9236E+00  0.1041E+02
   9.112  0.9391E+00  0.1042E+02
   9.122  0.9536E+00  0.1042E+02
   9.132  0.9670E+00  0.1043E+02
   9.142  0.9789E+00  0.1044E+02
   9.152  0.9892E+00  0.1045E+02
   9.162  0.9978E+00  0.1046E+02
   9.172  0.1005E+01  0.1047E+02
   9.182  0.1010E+01  0.1048E+02
   9.192  0.1013E+01  0.1049E+02
   9.202  0.1015E+01  0.1050E+02
   9.212  0.1015E+01  0.1051E+02
   9.222  0.1015E+01  0.1052E+02
   9.232  0.1014E+01  0.1053E+02
   9.242  0.1013E+01  0.1054E+02
   9.252  0.1013E+01  0.1056E+02
   9.262  0.1013E+01  0.1057E+02
   9.272  0.1015E+01  0.1058E+02
   9.282  0.1018E+01  0.1059E+02
   9.292  0.1023E+01  0.1060E+02
   9.302  0.1031E+01  0.1061E+02
   9.312  0.1042E+01  0.1062E+02
   9.322  0.1056E+01  0.1063E+02
   9.332  0.1074E+01  0.1064E+02
   9.342  0.1095E+01  0.1065E+02
   9.352  0.1120E+01  0.1066E+02
   9.362  0.1149E+01  0.1067E+02
   9.372  0.1181E+01  0.1068E+02
   9.382  0.1217E+01  0.1070E+02
   9.392  0.1255E+01  0.1071E+02
   9.402  0.1297E+01  0.1072E+02
   9.412  0.1341E+01  0.1073E+02
   9.422  0.1387E+01  0.1075E+02
   9.432  0.1435E+01  0.1076E+02
   9.442  0.1483E+01  0.1078E+02
   9.452  0.1532E+01  0.1079E+02
   9.462  0.1580E+01  0.1081E+02
   9.472  0.1628E+01  0.1082E+02
   9.482  0.1675E+01  0.1084E+02
   9.492  0.1719E+01  0.1086E+02
   9.502  0.1761E+01  0.1088E+02
   9.512  0.1800E+01  0.1089E+02
   9.522  0.1835E+01  0.1091E+02
   9.532  0.1867E+01  0.1093E+02
   9.542  0.1894E+01  0.1095E+02
   9.552  0.1917E+01  0.1097E+02
   9.562  0.1936E+01  0.1099E+02
   9.572  0.1949E+01  0.1101E+02
   9.582  0.1959E+01  0.1103E+02
   9.592  0.1963E+01  0.1105E+02
   9.602  0.1964E+01  0.1107E+02
   9.612  0.1960E+01  0.1109E+02
   9.622  0.1952E+01  0.1111E+02
   9.632  0.1941E+01  0.1113E+02
   9.642  0.1926E+01  0.1114E+02
   9.652  0.1908E+01  0.1116E+02
   9.662  0.1887E+01  0.1118E+02
   9.672  0.1863E+01  0.1120E+02
   9.682  0.1837E+01  0.1122E+02
   9.692  0.1810E+01  0.1124E+02
   9.702  0.1780E+01  0.1126E+02
   9.712  0.1749E+01  0.1127E+02
   9.722  0.1716E+01  0.1129E+02
   9.732  0.1683E+01  0.1131E+02
   9.742  0.1648E+01  0.1132E+02
   9.752  0.1614E+01  0.1134E+02
   9.762  0.1578E+01  0.1136E+02
   9.772  0.1543E+01  0.1137E+02
   9.782  0.1508E+01  0.1139E+02
   9.792  0.1474E+01  0.1140E+02
   9.802  0.1441E+01  0.1142E+02
   9.812  0.1408E+01  0.1143E+02
   9.822  0.1378E+01  0.1144E+02
   9.832  0.1349E+01  0.1146E+02
   9.842  0.1322E+01  0.1147E+02
   9.852  0.1297E+01  0.1148E+02
   9.862  0.1275E+01  0.1150E+02
   9.872  0.1256E+01  0.1151E+02
   9.882  0.1239E+01  0.1152E+02
   9.892  0.1226E+01  0.1153E+02
   9.902  0.1215E+01  0.1154E+02
   9.912  0.1208E+01  0.1156E+02
   9.922  0.1203E+01  0.1157E+02
   9.932  0.1201E+01  0.1158E+02
   9.942  0.1203E+01  0.1159E+02
   9.952  0.1206E+01  0.1161E+02
   9.962  0.1212E+01  0.1162E+02
   9.972  0.1220E+01  0.1163E+02
   9.982  0.1230E+01  0.1164E+02
   9.992  0.1242E+01  0.1165E+02
  10.002  0.1255E+01  0.1167E+02
  10.012  0.1269E+01  0.1168E+02
  10.022  0.1284E+01  0.1169E+02
  10.032  0.1299E+01  0.1171E+02
  10.042  0.1314E+01  0.1172E+02
  10.052  0.1330E+01  0.1173E+02
  10.062  0.1345E+01  0.1175E+02
  10.072  0.1360E+01  0.1176E+02
  10.082  0.1374E+01  0.1177E+02
  10.092  0.1387E+01  0.1179E+02
  10.102  0.1399E+01  0.1180E+02
  10.112  0.1411E+01  0.1181E+02
  10.122  0.1421E+01  0.1183E+02
  10.132  0.1430E+01  0.1184E+02
  10.142  0.1438E+01  0.1186E+02
  10.152  0.1445E+01  0.1187E+02
  10.162  0.1450E+01  0.1189E+02
  10.172  0.1453E+01  0.1190E+02
  10.182  0.1455E+01  0.1192E+02
  10.192  0.1456E+01  0.1193E+02
  10.202  0.1454E+01  0.1194E+02
  10.212  0.1451E+01  0.1196E+02
  10.222  0.1445E+01  0.1197E+02
  10.232  0.1438E+01  0.1199E+02
  10.242  0.1428E+01  0.1200E+02
  10.252  0.1417E+01  0.1202E+02
  10.262  0.1403E+01  0.1203E+02
  10.272  0.1387E+01  0.1204E+02
  10.282  0.1369E+01  0.1206E+02
  10.292  0.1349E+01  0.1207E+02
  10.302  0.1327E+01  0.1208E+02
  10.312  0.1303E+01  0.1210E+02
  10.322  0.1278E+01  0.1211E+02
  10.332  0.1252E+01  0.1212E+02
  10.342  0.1225E+01  0.1214E+02
  10.352  0.1198E+01  0.1215E+02
  10.362  0.1171E+01  0.1216E+02
  10.372  0.1144E+01  0.1217E+02
  10.382  0.1119E+01  0.1218E+02
  10.392  0.1096E+01  0.1219E+02
  10.402  0.1075E+01  0.1220E+02
  10.412  0.1057E+01  0.1221E+02
  10.422  0.1042E+01  0.1222E+02
  10.432  0.1031E+01  0.1223E+02
  10.442  0.1023E+01  0.1224E+02
  10.452  0.1020E+01  0.1225E+02
  10.462  0.1020E+01  0.1227E+02
  10.472  0.1024E+01  0.1228E+02
  10.482  0.1031E+01  0.1229E+02
  10.492  0.1042E+01  0.1230E+02
  10.502  0.1054E+01  0.1231E+02
  10.512  0.1069E+01  0.1232E+02
  10.522  0.1086E+01  0.1233E+02
  10.532  0.1103E+01  0.1234E+02
  10.542  0.1120E+01  0.1235E+02
  10.552  0.1137E+01  0.1236E+02
  10.562  0.1153E+01  0.1237E+02
  10.572  0.1168E+01  0.1239E+02
  10.582  0.1182E+01  0.1240E+02
  10.592  0.1194E+01  0.1241E+02
  10.602  0.1204E+01  0.1242E+02
  10.612  0.1213E+01  0.1243E+02
  10.622  0.1221E+01  0.1245E+02
  10.632  0.1228E+01  0.1246E+02
  10.642  0.1235E+01  0.1247E+02
  10.652  0.1242E+01  0.1248E+02
  10.662  0.1250E+01  0.1249E+02
  10.672  0.1259E+01  0.1251E+02
  10.682  0.1269E+01  0.1252E+02
  10.692  0.1282E+01  0.1253E+02
  10.702  0.1296E+01  0.1255E+02
  10.712  0.1312E+01  0.1256E+02
  10.722  0.1331E+01  0.1257E+02
  10.732  0.1352E+01  0.1259E+02
  10.742  0.1374E+01  0.1260E+02
  10.752  0.1398E+01  0.1261E+02
  10.762  0.1424E+01  0.1263E+02
  10.772  0.1449E+01  0.1264E+02
  10.782  0.1475E+01  0.1266E+02
  10.792  0.1500E+01  0.1267E+02
  10.802  0.1525E+01  0.1269E+02
  10.812  0.1548E+01  0.1270E+02
  10.822  0.1569E+01  0.1272E+02
  10.832  0.1588E+01  0.1273E+02
  10.842  0.1604E+01  0.1275E+02
  10.852  0.1619E+01  0.1277E+02
  10.862  0.1630E+01  0.1278E+02
  10.872  0.1640E+01  0.1280E+02
  10.882  0.1647E+01  0.1282E+02
  10.892  0.1651E+01  0.1283E+02
  10.902  0.1654E+01  0.1285E+02
  10.912  0.1656E+01  0.1287E+02
  10.922  0.1656E+01  0.1288E+02
  10.932  0.1655E+01  0.1290E+02
  10.942  0.1653E+01  0.1291E+02
  10.952  0.1651E+01  0.1293E+02
  10.962  0.1647E+01  0.1295E+02
  10.972  0.1644E+01  0.1296E+02
  10.982  0.1639E+01  0.1298E+02
  10.992  0.1635E+01  0.1300E+02
  11.002  0.1629E+01  0.1301E+02
  11.012  0.1623E+01  0.1303E+02
  11.022  0.1616E+01  0.1305E+02
  11.032  0.1607E+01  0.1306E+02
  11.042  0.1598E+01  0.1308E+02
  11.052  0.1588E+01  0.1309E+02
  11.062  0.1576E+01  0.1311E+02
  11.072  0.1564E+01  0.1313E+02
  11.082  0.1550E+01  0.1314E+02
  11.092  0.1535E+01  0.1316E+02
  11.102  0.1519E+01  0.1317E+02
  11.112  0.1502E+01  0.1319E+02
  11.122  0.1484E+01  0.1320E+02
  11.132  0.1466E+01  0.1322E+02
  11.142  0.1447E+01  0.1323E+02
  11.152  0.1427E+01  0.1324E+02
  11.162  0.1406E+01  0.1326E+02
  11.172  0.1385E+01  0.1327E+02
  11.182  0.1363E+01  0.1329E+02
  11.192  0.1340E+01  0.1330E+02
  11.202  0.1317E+01  0.1331E+02
  11.212  0.1294E+01  0.1333E+02
  11.222  0.1271E+01  0.1334E+02
  11.232  0.1247E+01  0.1335E+02
  11.242  0.1223E+01  0.1336E+02
  11.252  0.1199E+01  0.1337E+02
  11.262  0.1176E+01  0.1339E+02
  11.272  0.1154E+01  0.1340E+02
  11.282  0.1132E+01  0.1341E+02
  11.292  0.1112E+01  0.1342E+02
  11.302  0.1093E+01  0.1343E+02
  11.312  0.1075E+01  0.1344E+02
  11.322  0.1060E+01  0.1345E+02
  11.332  0.1046E+01  0.1346E+02
  11.342  0.1034E+01  0.1347E+02
  11.352  0.1025E+01  0.1348E+02
  11.362  0.1017E+01  0.1349E+02
  11.372  0.1012E+01  0.1350E+02
  11.382  0.1009E+01  0.1351E+02
  11.392  0.1008E+01  0.1352E+02
  11.402  0.1010E+01  0.1353E+02
  11.412  0.1013E+01  0.1354E+02
  11.422  0.1018E+01  0.1355E+02
  11.432  0.1024E+01  0.1357E+02
  11.442  0.1032E+01  0.1358E+02
  11.452  0.1041E+01  0.1359E+02
  11.462  0.1051E+01  0.1360E+02
  11.472  0.1062E+01  0.1361E+02
  11.482  0.1074E+01  0.1362E+02
  11.492  0.1086E+01  0.1363E+02
  11.502  0.1098E+01  0.1364E+02
  11.512  0.1110E+01  0.1365E+02
  11.522  0.1122E+01  0.1366E+02
  11.532  0.1133E+01  0.1367E+02
  11.542  0.1143E+01  0.1368E+02
  11.552  0.1152E+01  0.1370E+02
  11.562  0.1161E+01  0.1371E+02
  11.572  0.1168E+01  0.1372E+02
  11.582  0.1175E+01  0.1373E+02
  11.592  0.1180E+01  0.1374E+02
  11.602  0.1184E+01  0.1375E+02
  11.612  0.1187E+01  0.1377E+02
  11.622  0.1189E+01  0.1378E+02
  11.632  0.1189E+01  0.1379E+02
  11.642  0.1189E+01  0.1380E+02
  11.652  0.1188E+01  0.1381E+02
  11.662  0.1187E+01  0.1383E+02
  11.672  0.1185E+01  0.1384E+02
  11.682  0.1182E+01  0.1385E+02
  11.692  0.1178E+01  0.1386E+02
  11.702  0.1174E+01  0.1387E+02
  11.712  0.1169E+01  0.1388E+02
  11.722  0.1164E+01  0.1390E+02
  11.732  0.1158E+01  0.1391E+02
  11.742  0.1151E+01  0.1392E+02
  11.752  0.1144E+01  0.1393E+02
  11.762  0.1135E+01  0.1394E+02
  11.772  0.1126E+01  0.1395E+02
  11.782  0.1116E+01  0.1396E+02
  11.792  0.1105E+01  0.1398E+02
  11.802  0.1093E+01  0.1399E+02
  11.812  0.1079E+01  0.1400E+02
  11.822  0.1065E+01  0.1401E+02
  11.832  0.1050E+01  0.1402E+02
  11.842  0.1034E+01  0.1403E+02
  11.852  0.1017E+01  0.1404E+02
  11.862  0.9999E+00  0.1405E+02
  11.872  0.9822E+00  0.1406E+02
  11.882  0.9642E+00  0.1407E+02
  11.892  0.9462E+00  0.1408E+02
  11.902  0.9283E+00  0.1409E+02
  11.912  0.9107E+00  0.1410E+02
  11.922  0.8936E+00  0.1411E+02
  11.932  0.8772E+00  0.1411E+02
  11.942  0.8615E+00  0.1412E+02
  11.952  0.8468E+00  0.1413E+02
  11.962  0.8332E+00  0.1414E+02
  11.972  0.8207E+00  0.1415E+02
  11.982  0.8095E+00  0.1416E+02
  11.992  0.7997E+00  0.1416E+02
  12.002  0.7913E+00  0.1417E+02
  12.012  0.7844E+00  0.1418E+02
  12.022  0.7791E+00  0.1419E+02
  12.032  0.7754E+00  0.1420E+02
  12.042  0.7733E+00  0.1420E+02
  12.052  0.7728E+00  0.1421E+02
  12.062  0.7740E+00  0.1422E+02
  12.072  0.7767E+00  0.1423E+02
  12.082  0.7809E+00  0.1423E+02
  12.092  0.7865E+00  0.1424E+02
  12.102  0.7934E+00  0.1425E+02
  12.112  0.8015E+00  0.1426E+02
  12.122  0.8107E+00  0.1427E+02
  12.132  0.8207E+00  0.1427E+02
  12.142  0.8316E+00  0.1428E+02
  12.152  0.8431E+00  0.1429E+02
  12.162  0.8551E+00  0.1430E+02
  12.172  0.8675E+00  0.1431E+02
  12.182  0.8801E+00  0.1432E+02
  12.192  0.8928E+00  0.1433E+02
  12.202  0.9056E+00  0.1433E+02
  12.212  0.9182E+00  0.1434E+02
  12.222  0.9306E+00  0.1435E+02
  12.232  0.9426E+00  0.1436E+02
  12.242  0.9541E+00  0.1437E+02
  12.252  0.9649E+00  0.1438E+02
  12.262  0.9749E+00  0.1439E+02
  12.272  0.9839E+00  0.1440E+02
  12.282  0.9918E+00  0.1441E+02
  12.292  0.9983E+00  0.1442E+02
  12.302  0.1003E+01  0.1443E+02
  12.312  0.1007E+01  0.1444E+02
  12.322  0.1008E+01  0.1445E+02
  12.332  0.1008E+01  0.1446E+02
  12.342  0.1005E+01  0.1447E+02
  12.352  0.1001E+01  0.1448E+02
  12.362  0.9940E+00  0.1449E+02
  12.372  0.9852E+00  0.1450E+02
  12.382  0.9744E+00  0.1451E+02
  12.392  0.9617E+00  0.1452E+02
  12.402  0.9471E+00  0.1453E+02
  12.412  0.9309E+00  0.1454E+02
  12.422  0.9133E+00  0.1455E+02
  12.432  0.8945E+00  0.1456E+02
  12.442  0.8746E+00  0.1457E+02
  12.452  0.8540E+00  0.1458E+02
  12.462  0.8328E+00  0.1458E+02
  12.472  0.8114E+00  0.1459E+02
  12.482  0.7899E+00  0.1460E+02
  12.492  0.7686E+00  0.1461E+02
  12.502  0.7477E+00  0.1461E+02
  12.512  0.7274E+00  0.1462E+02
  12.522  0.7080E+00  0.1463E+02
  12.532  0.6896E+00  0.1464E+02
  12.542  0.6724E+00  0.1464E+02
  12.552  0.6566E+00  0.1465E+02
  12.562  0.6425E+00  0.1466E+02
  12.572  0.6302E+00  0.1466E+02
  12.582  0.6199E+00  0.1467E+02
  12.592  0.6117E+00  0.1467E+02
  12.602  0.6059E+00  0.1468E+02
  12.612  0.6026E+00  0.1469E+02
  12.622  0.6018E+00  0.1469E+02
  12.632  0.6037E+00  0.1470E+02
  12.642  0.6084E+00  0.1470E+02
  12.652  0.6158E+00  0.1471E+02
  12.662  0.6260E+00  0.1472E+02
  12.672  0.6389E+00  0.1472E+02
  12.682  0.6544E+00  0.1473E+02
  12.692  0.6725E+00  0.1474E+02
  12.702  0.6930E+00  0.1474E+02
  12.712  0.7157E+00  0.1475E+02
  12.722  0.7403E+00  0.1476E+02
  12.732  0.7668E+00  0.1477E+02
  12.742  0.7948E+00  0.1477E+02
  12.752  0.8240E+00  0.1478E+02
  12.762  0.8543E+00  0.1479E+02
  12.772  0.8854E+00  0.1480E+02
  12.782  0.9170E+00  0.1481E+02
  12.792  0.9488E+00  0.1482E+02
  12.802  0.9807E+00  0.1483E+02
  12.812  0.1012E+01  0.1484E+02
  12.822  0.1044E+01  0.1485E+02
  12.832  0.1075E+01  0.1486E+02
  12.842  0.1105E+01  0.1487E+02
  12.852  0.1135E+01  0.1488E+02
  12.862  0.1163E+01  0.1489E+02
  12.872  0.1191E+01  0.1491E+02
  12.882  0.1218E+01  0.1492E+02
  12.892  0.1244E+01  0.1493E+02
  12.902  0.1269E+01  0.1494E+02
  12.912  0.1293E+01  0.1496E+02
  12.922  0.1316E+01  0.1497E+02
  12.932  0.1339E+01  0.1498E+02
  12.942  0.1360E+01  0.1500E+02
  12.952  0.1380E+01  0.1501E+02
  12.962  0.1399E+01  0.1502E+02
  12.972  0.1417E+01  0.1504E+02
  12.982  0.1433E+01  0.1505E+02
  12.992  0.1447E+01  0.1507E+02
  13.002  0.1459E+01  0.1508E+02
  13.012  0.1470E+01  0.1510E+02
  13.022  0.1477E+01  0.1511E+02
  13.032  0.1482E+01  0.1513E+02
  13.042  0.1483E+01  0.1514E+02
  13.052  0.1482E+01  0.1515E+02
  13.062  0.1476E+01  0.1517E+02
  13.072  0.1468E+01  0.1518E+02
  13.082  0.1455E+01  0.1520E+02
  13.092  0.1439E+01  0.1521E+02
  13.102  0.1420E+01  0.1523E+02
  13.112  0.1398E+01  0.1524E+02
  13.122  0.1373E+01  0.1525E+02
  13.132  0.1346E+01  0.1527E+02
  13.142  0.1316E+01  0.1528E+02
  13.152  0.1286E+01  0.1529E+02
  13.162  0.1255E+01  0.1531E+02
  13.172  0.1224E+01  0.1532E+02
  13.182  0.1193E+01  0.1533E+02
  13.192  0.1165E+01  0.1534E+02
  13.202  0.1138E+01  0.1535E+02
  13.212  0.1114E+01  0.1537E+02
  13.222  0.1093E+01  0.1538E+02
  13.232  0.1076E+01  0.1539E+02
  13.242  0.1063E+01  0.1540E+02
  13.252  0.1054E+01  0.1541E+02
  13.262  0.1049E+01  0.1542E+02
  13.272  0.1048E+01  0.1543E+02
  13.282  0.1052E+01  0.1544E+02
  13.292  0.1059E+01  0.1545E+02
  13.302  0.1069E+01  0.1546E+02
  13.312  0.1083E+01  0.1547E+02
  13.322  0.1098E+01  0.1548E+02
  13.332  0.1116E+01  0.1549E+02
  13.342  0.1134E+01  0.1551E+02
  13.352  0.1153E+01  0.1552E+02
  13.362  0.1173E+01  0.1553E+02
  13.372  0.1191E+01  0.1554E+02
  13.382  0.1209E+01  0.1555E+02
  13.392  0.1225E+01  0.1556E+02
  13.402  0.1239E+01  0.1558E+02
  13.412  0.1251E+01  0.1559E+02
  13.422  0.1260E+01  0.1560E+02
  13.432  0.1267E+01  0.1561E+02
  13.442  0.1271E+01  0.1563E+02
  13.452  0.1272E+01  0.1564E+02
  13.462  0.1271E+01  0.1565E+02
  13.472  0.1266E+01  0.1567E+02
  13.482  0.1260E+01  0.1568E+02
  13.492  0.1251E+01  0.1569E+02
  13.502  0.1239E+01  0.1570E+02
  13.512  0.1226E+01  0.1572E+02
  13.522  0.1211E+01  0.1573E+02
  13.532  0.1195E+01  0.1574E+02
  13.542  0.1177E+01  0.1575E+02
  13.552  0.1159E+01  0.1576E+02
  13.562  0.1140E+01  0.1577E+02
  13.572  0.1120E+01  0.1579E+02
  13.582  0.1100E+01  0.1580E+02
  13.592  0.1080E+01  0.1581E+02
  13.602  0.1061E+01  0.1582E+02
  13.612  0.1042E+01  0.1583E+02
  13.622  0.1024E+01  0.1584E+02
  13.632  0.1008E+01  0.1585E+02
  13.642  0.9920E+00  0.1586E+02
  13.652  0.9779E+00  0.1587E+02
  13.662  0.9655E+00  0.1588E+02
  13.672  0.9550E+00  0.1589E+02
  13.682  0.9465E+00  0.1590E+02
  13.692  0.9401E+00  0.1591E+02
  13.702  0.9360E+00  0.1592E+02
  13.712  0.9342E+00  0.1593E+02
  13.722  0.9348E+00  0.1593E+02
  13.732  0.9377E+00  0.1594E+02
  13.742  0.9429E+00  0.1595E+02
  13.752  0.9504E+00  0.1596E+02
  13.762  0.9600E+00  0.1597E+02
  13.772  0.9715E+00  0.1598E+02
  13.782  0.9849E+00  0.1599E+02
  13.792  0.9998E+00  0.1600E+02
  13.802  0.1016E+01  0.1601E+02
  13.812  0.1034E+01  0.1602E+02
  13.822  0.1052E+01  0.1603E+02
  13.832  0.1071E+01  0.1604E+02
  13.842  0.1090E+01  0.1605E+02
  13.852  0.1109E+01  0.1607E+02
  13.862  0.1128E+01  0.1608E+02
  13.872  0.1146E+01  0.1609E+02
  13.882  0.1164E+01  0.1610E+02
  13.892  0.1180E+01  0.1611E+02
  13.902  0.1194E+01  0.1612E+02
  13.912  0.1207E+01  0.1614E+02
  13.922  0.1218E+01  0.1615E+02
  13.932  0.1227E+01  0.1616E+02
  13.942  0.1234E+01  0.1617E+02
  13.952  0.1238E+01  0.1619E+02
  13.962  0.1241E+01  0.1620E+02
  13.972  0.1240E+01  0.1621E+02
  13.982  0.1238E+01  0.1622E+02
  13.992  0.1234E+01  0.1623E+02
  14.002  0.1228E+01  0.1625E+02
  14.012  0.1220E+01  0.1626E+02
  14.022  0.1210E+01  0.1627E+02
  14.032  0.1200E+01  0.1628E+02
  14.042  0.1188E+01  0.1630E+02
  14.052  0.1175E+01  0.1631E+02
  14.062  0.1161E+01  0.1632E+02
  14.072  0.1147E+01  0.1633E+02
  14.082  0.1133E+01  0.1634E+02
  14.092  0.1118E+01  0.1635E+02
  14.102  0.1103E+01  0.1636E+02
  14.112  0.1089E+01  0.1637E+02
  14.122  0.1074E+01  0.1639E+02
  14.132  0.1059E+01  0.1640E+02
  14.142  0.1045E+01  0.1641E+02
  14.152  0.1030E+01  0.1642E+02
  14.162  0.1016E+01  0.1643E+02
  14.172  0.1003E+01  0.1644E+02
  14.182  0.9895E+00  0.1645E+02
  14.192  0.9767E+00  0.1646E+02
  14.202  0.9645E+00  0.1647E+02
  14.212  0.9530E+00  0.1648E+02
  14.222  0.9422E+00  0.1648E+02
  14.232  0.9322E+00  0.1649E+02
  14.242  0.9231E+00  0.1650E+02
  14.252  0.9150E+00  0.1651E+02
  14.262  0.9080E+00  0.1652E+02
  14.272  0.9022E+00  0.1653E+02
  14.282  0.8976E+00  0.1654E+02
  14.292  0.8942E+00  0.1655E+02
  14.302  0.8922E+00  0.1656E+02
  14.312  0.8914E+00  0.1657E+02
  14.322  0.8919E+00  0.1658E+02
  14.332  0.8937E+00  0.1658E+02
  14.342  0.8968E+00  0.1659E+02
  14.352  0.9013E+00  0.1660E+02
  14.362  0.9070E+00  0.1661E+02
  14.372  0.9140E+00  0.1662E+02
  14.382  0.9224E+00  0.1663E+02
  14.392  0.9322E+00  0.1664E+02
  14.402  0.9434E+00  0.1665E+02
  14.412  0.9562E+00  0.1666E+02
  14.422  0.9706E+00  0.1667E+02
  14.432  0.9867E+00  0.1668E+02
  14.442  0.1004E+01  0.1669E+02
  14.452  0.1024E+01  0.1670E+02
  14.462  0.1045E+01  0.1671E+02
  14.472  0.1067E+01  0.1672E+02
  14.482  0.1091E+01  0.1673E+02
  14.492  0.1116E+01  0.1674E+02
  14.502  0.1141E+01  0.1675E+02
  14.512  0.1167E+01  0.1676E+02
  14.522  0.1193E+01  0.1678E+02
  14.532  0.1218E+01  0.1679E+02
  14.542  0.1242E+01  0.1680E+02
  14.552  0.1265E+01  0.1681E+02
  14.562  0.1286E+01  0.1683E+02
  14.572  0.1305E+01  0.1684E+02
  14.582  0.1321E+01  0.1685E+02
  14.592  0.1334E+01  0.1687E+02
  14.602  0.1344E+01  0.1688E+02
  14.612  0.1351E+01  0.1689E+02
  14.622  0.1356E+01  0.1691E+02
  14.632  0.1357E+01  0.1692E+02
  14.642  0.1356E+01  0.1693E+02
  14.652  0.1353E+01  0.1695E+02
  14.662  0.1348E+01  0.1696E+02
  14.672  0.1342E+01  0.1697E+02
  14.682  0.1334E+01  0.1699E+02
  14.692  0.1326E+01  0.1700E+02
  14.702  0.1318E+01  0.1701E+02
  14.712  0.1310E+01  0.1703E+02
  14.722  0.1302E+01  0.1704E+02
  14.732  0.1295E+01  0.1705E+02
  14.742  0.1288E+01  0.1707E+02
  14.752  0.1283E+01  0.1708E+02
  14.762  0.1278E+01  0.1709E+02
  14.772  0.1274E+01  0.1710E+02
  14.782  0.1271E+01  0.1712E+02
  14.792  0.1269E+01  0.1713E+02
  14.802  0.1268E+01  0.1714E+02
  14.812  0.1267E+01  0.1715E+02
  14.822  0.1266E+01  0.1717E+02
  14.832  0.1266E+01  0.1718E+02
  14.842  0.1266E+01  0.1719E+02
  14.852  0.1267E+01  0.1721E+02
  14.862  0.1268E+01  0.1722E+02
  14.872  0.1269E+01  0.1723E+02
  14.882  0.1271E+01  0.1724E+02
  14.892  0.1273E+01  0.1726E+02
  14.902  0.1276E+01  0.1727E+02
  14.912  0.1281E+01  0.1728E+02
  14.922  0.1286E+01  0.1729E+02
  14.932  0.1292E+01  0.1731E+02
  14.942  0.1300E+01  0.1732E+02
  14.952  0.1310E+01  0.1733E+02
  14.962  0.1320E+01  0.1735E+02
  14.972  0.1332E+01  0.1736E+02
  14.982  0.1345E+01  0.1737E+02
  14.992  0.1358E+01  0.1739E+02
  15.002  0.1372E+01  0.1740E+02
  15.012  0.1385E+01  0.1741E+02
  15.022  0.1398E+01  0.1743E+02
  15.032  0.1410E+01  0.1744E+02
  15.042  0.1420E+01  0.1746E+02
  15.052  0.1429E+01  0.1747E+02
  15.062  0.1435E+01  0.1749E+02
  15.072  0.1438E+01  0.1750E+02
  15.082  0.1439E+01  0.1751E+02
  15.092  0.1436E+01  0.1753E+02
  15.102  0.1431E+01  0.1754E+02
  15.112  0.1422E+01  0.1756E+02
  15.122  0.1411E+01  0.1757E+02
  15.132  0.1397E+01  0.1759E+02
  15.142  0.1381E+01  0.1760E+02
  15.152  0.1364E+01  0.1761E+02
  15.162  0.1345E+01  0.1763E+02
  15.172  0.1326E+01  0.1764E+02
  15.182  0.1306E+01  0.1765E+02
  15.192  0.1286E+01  0.1767E+02
  15.202  0.1267E+01  0.1768E+02
  15.212  0.1249E+01  0.1769E+02
  15.222  0.1232E+01  0.1770E+02
  15.232  0.1217E+01  0.1772E+02
  15.242  0.1203E+01  0.1773E+02
  15.252  0.1191E+01  0.1774E+02
  15.262  0.1180E+01  0.1775E+02
  15.272  0.1171E+01  0.1776E+02
  15.282  0.1164E+01  0.1777E+02
  15.292  0.1158E+01  0.1779E+02
  15.302  0.1154E+01  0.1780E+02
  15.312  0.1151E+01  0.1781E+02
  15.322  0.1149E+01  0.1782E+02
  15.332  0.1148E+01  0.1783E+02
  15.342  0.1148E+01  0.1784E+02
  15.352  0.1149E+01  0.1785E+02
  15.362  0.1150E+01  0.1787E+02
  15.372  0.1152E+01  0.1788E+02
  15.382  0.1154E+01  0.1789E+02
  15.392  0.1156E+01  0.1790E+02
  15.402  0.1158E+01  0.1791E+02
  15.412  0.1159E+01  0.1792E+02
  15.422  0.1160E+01  0.1794E+02
  15.432  0.1160E+01  0.1795E+02
  15.442  0.1159E+01  0.1796E+02
  15.452  0.1157E+01  0.1797E+02
  15.462  0.1153E+01  0.1798E+02
  15.472  0.1149E+01  0.1799E+02
  15.482  0.1143E+01  0.1800E+02
  15.492  0.1136E+01  0.1802E+02
  15.502  0.1128E+01  0.1803E+02
  15.512  0.1120E+01  0.1804E+02
  15.522  0.1111E+01  0.1805E+02
  15.532  0.1102E+01  0.1806E+02
  15.542  0.1094E+01  0.1807E+02
  15.552  0.1086E+01  0.1808E+02
  15.562  0.1079E+01  0.1809E+02
  15.572  0.1074E+01  0.1810E+02
  15.582  0.1070E+01  0.1811E+02
  15.592  0.1068E+01  0.1813E+02
  15.602  0.1068E+01  0.1814E+02
  15.612  0.1069E+01  0.1815E+02
  15.622  0.1073E+01  0.1816E+02
  15.632  0.1078E+01  0.1817E+02
  15.642  0.1084E+01  0.1818E+02
  15.652  0.1091E+01  0.1819E+02
  15.662  0.1099E+01  0.1820E+02
  15.672  0.1107E+01  0.1821E+02
  15.682  0.1115E+01  0.1822E+02
  15.692  0.1122E+01  0.1823E+02
  15.702  0.1128E+01  0.1825E+02
  15.712  0.1132E+01  0.1826E+02
  15.722  0.1135E+01  0.1827E+02
  15.732  0.1136E+01  0.1828E+02
  15.742  0.1135E+01  0.1829E+02
  15.752  0.1132E+01  0.1830E+02
  15.762  0.1126E+01  0.1831E+02
  15.772  0.1119E+01  0.1832E+02
  15.782  0.1110E+01  0.1834E+02
  15.792  0.1099E+01  0.1835E+02
  15.802  0.1087E+01  0.1836E+02
  15.812  0.1073E+01  0.1837E+02
  15.822  0.1059E+01  0.1838E+02
  15.832  0.1044E+01  0.1839E+02
  15.842  0.1029E+01  0.1840E+02
  15.852  0.1015E+01  0.1841E+02
  15.862  0.1001E+01  0.1842E+02
  15.872  0.9880E+00  0.1843E+02
  15.882  0.9763E+00  0.1844E+02
  15.892  0.9661E+00  0.1845E+02
  15.902  0.9577E+00  0.1846E+02
  15.912  0.9512E+00  0.1847E+02
  15.922  0.9466E+00  0.1848E+02
  15.932  0.9440E+00  0.1849E+02
  15.942  0.9433E+00  0.1850E+02
  15.952  0.9443E+00  0.1851E+02
  15.962  0.9468E+00  0.1852E+02
  15.972  0.9506E+00  0.1853E+02
  15.982  0.9552E+00  0.1853E+02
  15.992  0.9602E+00  0.1854E+02
  16.002  0.9653E+00  0.1855E+02
  16.012  0.9700E+00  0.1856E+02
  16.022  0.9740E+00  0.1857E+02
  16.032  0.9768E+00  0.1858E+02
  16.042  0.9782E+00  0.1859E+02
  16.052  0.9779E+00  0.1860E+02
  16.062  0.9758E+00  0.1861E+02
  16.072  0.9718E+00  0.1862E+02
  16.082  0.9660E+00  0.1863E+02
  16.092  0.9585E+00  0.1864E+02
  16.102  0.9495E+00  0.1865E+02
  16.112  0.9394E+00  0.1866E+02
  16.122  0.9283E+00  0.1867E+02
  16.132  0.9168E+00  0.1868E+02
  16.142  0.9051E+00  0.1869E+02
  16.152  0.8937E+00  0.1870E+02
  16.162  0.8828E+00  0.1871E+02
  16.172  0.8728E+00  0.1871E+02
  16.182  0.8638E+00  0.1872E+02
  16.192  0.8561E+00  0.1873E+02
  16.202  0.8497E+00  0.1874E+02
  16.212  0.8446E+00  0.1875E+02
  16.222  0.8407E+00  0.1876E+02
  16.232  0.8380E+00  0.1877E+02
  16.242  0.8363E+00  0.1877E+02
  16.252  0.8355E+00  0.1878E+02
  16.262  0.8352E+00  0.1879E+02
  16.272  0.8354E+00  0.1880E+02
  16.282  0.8358E+00  0.1881E+02
  16.292  0.8363E+00  0.1882E+02
  16.302  0.8367E+00  0.1882E+02
  16.312  0.8369E+00  0.1883E+02
  16.322  0.8368E+00  0.1884E+02
  16.332  0.8365E+00  0.1885E+02
  16.342  0.8359E+00  0.1886E+02
  16.352  0.8350E+00  0.1887E+02
  16.362  0.8339E+00  0.1887E+02
  16.372  0.8324E+00  0.1888E+02
  16.382  0.8308E+00  0.1889E+02
  16.392  0.8289E+00  0.1890E+02
  16.402  0.8268E+00  0.1891E+02
  16.412  0.8246E+00  0.1892E+02
  16.422  0.8222E+00  0.1892E+02
  16.432  0.8196E+00  0.1893E+02
  16.442  0.8168E+00  0.1894E+02
  16.452  0.8139E+00  0.1895E+02
  16.462  0.8110E+00  0.1896E+02
  16.472  0.8080E+00  0.1896E+02
  16.482  0.8051E+00  0.1897E+02
  16.492  0.8023E+00  0.1898E+02
  16.502  0.7998E+00  0.1899E+02
  16.512  0.7976E+00  0.1900E+02
  16.522  0.7959E+00  0.1900E+02
  16.532  0.7947E+00  0.1901E+02
  16.542  0.7940E+00  0.1902E+02
  16.552  0.7940E+00  0.1903E+02
  16.562  0.7945E+00  0.1904E+02
  16.572  0.7955E+00  0.1904E+02
  16.582  0.7969E+00  0.1905E+02
  16.592  0.7985E+00  0.1906E+02
  16.602  0.8002E+00  0.1907E+02
  16.612  0.8017E+00  0.1908E+02
  16.622  0.8028E+00  0.1908E+02
  16.632  0.8032E+00  0.1909E+02
  16.642  0.8028E+00  0.1910E+02
  16.652  0.8013E+00  0.1911E+02
  16.662  0.7985E+00  0.1912E+02
  16.672  0.7943E+00  0.1912E+02
  16.682  0.7886E+00  0.1913E+02
  16.692  0.7814E+00  0.1914E+02
  16.702  0.7727E+00  0.1915E+02
  16.712  0.7626E+00  0.1916E+02
  16.722  0.7512E+00  0.1916E+02
  16.732  0.7387E+00  0.1917E+02
  16.742  0.7253E+00  0.1918E+02
  16.752  0.7113E+00  0.1918E+02
  16.762  0.6970E+00  0.1919E+02
  16.772  0.6825E+00  0.1920E+02
  16.782  0.6682E+00  0.1920E+02
  16.792  0.6544E+00  0.1921E+02
  16.802  0.6411E+00  0.1922E+02
  16.812  0.6286E+00  0.1922E+02
  16.822  0.6171E+00  0.1923E+02
  16.832  0.6065E+00  0.1924E+02
  16.842  0.5968E+00  0.1924E+02
  16.852  0.5882E+00  0.1925E+02
  16.862  0.5803E+00  0.1925E+02
  16.872  0.5733E+00  0.1926E+02
  16.882  0.5669E+00  0.1927E+02
  16.892  0.5609E+00  0.1927E+02
  16.902  0.5553E+00  0.1928E+02
  16.912  0.5500E+00  0.1928E+02
  16.922  0.5448E+00  0.1929E+02
  16.932  0.5396E+00  0.1929E+02
  16.942  0.5345E+00  0.1930E+02
  16.952  0.5294E+00  0.1930E+02
  16.962  0.5244E+00  0.1931E+02
  16.972  0.5196E+00  0.1931E+02
  16.982  0.5152E+00  0.1932E+02
  16.992  0.5111E+00  0.1932E+02
  17.002  0.5077E+00  0.1933E+02
  17.012  0.5050E+00  0.1933E+02
  17.022  0.5032E+00  0.1934E+02
  17.032  0.5025E+00  0.1934E+02
  17.042  0.5028E+00  0.1935E+02
  17.052  0.5044E+00  0.1935E+02
  17.062  0.5072E+00  0.1936E+02
  17.072  0.5112E+00  0.1936E+02
  17.082  0.5164E+00  0.1937E+02
  17.092  0.5227E+00  0.1938E+02
  17.102  0.5300E+00  0.1938E+02
  17.112  0.5381E+00  0.1939E+02
  17.122  0.5468E+00  0.1939E+02
  17.132  0.5560E+00  0.1940E+02
  17.142  0.5655E+00  0.1940E+02
  17.152  0.5749E+00  0.1941E+02
  17.162  0.5842E+00  0.1941E+02
  17.172  0.5930E+00  0.1942E+02
  17.182  0.6013E+00  0.1943E+02
  17.192  0.6088E+00  0.1943E+02
  17.202  0.6154E+00  0.1944E+02
  17.212  0.6210E+00  0.1944E+02
  17.222  0.6255E+00  0.1945E+02
  17.232  0.6289E+00  0.1946E+02
  17.242  0.6313E+00  0.1946E+02
  17.252  0.6326E+00  0.1947E+02
  17.262  0.6328E+00  0.1948E+02
  17.272  0.6322E+00  0.1948E+02
  17.282  0.6308E+00  0.1949E+02
  17.292  0.6286E+00  0.1949E+02
  17.302  0.6259E+00  0.1950E+02
  17.312  0.6228E+00  0.1951E+02
  17.322  0.6193E+00  0.1951E+02
  17.332  0.6155E+00  0.1952E+02
  17.342  0.6116E+00  0.1953E+02
  17.352  0.6077E+00  0.1953E+02
  17.362  0.6038E+00  0.1954E+02
  17.372  0.5999E+00  0.1954E+02
  17.382  0.5962E+00  0.1955E+02
  17.392  0.5927E+00  0.1956E+02
  17.402  0.5895E+00  0.1956E+02
  17.412  0.5866E+00  0.1957E+02
  17.422  0.5842E+00  0.1957E+02
  17.432  0.5822E+00  0.1958E+02
  17.442  0.5809E+00  0.1959E+02
  17.452  0.5803E+00  0.1959E+02
  17.462  0.5806E+00  0.1960E+02
  17.472  0.5818E+00  0.1960E+02
  17.482  0.5839E+00  0.1961E+02
  17.492  0.5872E+00  0.1961E+02
  17.502  0.5916E+00  0.1962E+02
  17.512  0.5972E+00  0.1963E+02
  17.522  0.6040E+00  0.1963E+02
  17.532  0.6119E+00  0.1964E+02
  17.542  0.6209E+00  0.1964E+02
  17.552  0.6309E+00  0.1965E+02
  17.562  0.6417E+00  0.1966E+02
  17.572  0.6532E+00  0.1966E+02
  17.582  0.6652E+00  0.1967E+02
  17.592  0.6775E+00  0.1968E+02
  17.602  0.6899E+00  0.1968E+02
  17.612  0.7020E+00  0.1969E+02
  17.622  0.7137E+00  0.1970E+02
  17.632  0.7246E+00  0.1971E+02
  17.642  0.7344E+00  0.1971E+02
  17.652  0.7429E+00  0.1972E+02
  17.662  0.7498E+00  0.1973E+02
  17.672  0.7548E+00  0.1974E+02
  17.682  0.7578E+00  0.1974E+02
  17.692  0.7585E+00  0.1975E+02
  17.702  0.7568E+00  0.1976E+02
  17.712  0.7526E+00  0.1977E+02
  17.722  0.7459E+00  0.1977E+02
  17.732  0.7368E+00  0.1978E+02
  17.742  0.7253E+00  0.1979E+02
  17.752  0.7117E+00  0.1979E+02
  17.762  0.6960E+00  0.1980E+02
  17.772  0.6785E+00  0.1981E+02
  17.782  0.6596E+00  0.1982E+02
  17.792  0.6394E+00  0.1982E+02
  17.802  0.6182E+00  0.1983E+02
  17.812  0.5964E+00  0.1983E+02
  17.822  0.5742E+00  0.1984E+02
  17.832  0.5517E+00  0.1984E+02
  17.842  0.5294E+00  0.1985E+02
  17.852  0.5072E+00  0.1986E+02
  17.862  0.4853E+00  0.1986E+02
  17.872  0.4639E+00  0.1986E+02
  17.882  0.4430E+00  0.1987E+02
  17.892  0.4226E+00  0.1987E+02
  17.902  0.4029E+00  0.1988E+02
  17.912  0.3837E+00  0.1988E+02
  17.922  0.3651E+00  0.1988E+02
  17.932  0.3472E+00  0.1989E+02
  17.942  0.3299E+00  0.1989E+02
  17.952  0.3133E+00  0.1989E+02
  17.962  0.2974E+00  0.1990E+02
  17.972  0.2823E+00  0.1990E+02
  17.982  0.2680E+00  0.1990E+02
  17.992  0.2546E+00  0.1991E+02
  18.002  0.2422E+00  0.1991E+02
  18.012  0.2308E+00  0.1991E+02
  18.022  0.2206E+00  0.1991E+02
  18.032  0.2115E+00  0.1991E+02
  18.042  0.2036E+00  0.1992E+02
  18.052  0.1969E+00  0.1992E+02
  18.062  0.1915E+00  0.1992E+02
  18.072  0.1873E+00  0.1992E+02
  18.082  0.1841E+00  0.1992E+02
  18.092  0.1820E+00  0.1993E+02
  18.102  0.1808E+00  0.1993E+02
  18.112  0.1804E+00  0.1993E+02
  18.122  0.1806E+00  0.1993E+02
  18.132  0.1812E+00  0.1993E+02
  18.142  0.1820E+00  0.1994E+02
  18.152  0.1829E+00  0.1994E+02
  18.162  0.1836E+00  0.1994E+02
  18.172  0.1840E+00  0.1994E+02
  18.182  0.1840E+00  0.1994E+02
  18.192  0.1834E+00  0.1994E+02
  18.202  0.1821E+00  0.1995E+02
  18.212  0.1800E+00  0.1995E+02
  18.222  0.1772E+00  0.1995E+02
  18.232  0.1735E+00  0.1995E+02
  18.242  0.1691E+00  0.1995E+02
  18.252  0.1639E+00  0.1996E+02
  18.262  0.1581E+00  0.1996E+02
  18.272  0.1517E+00  0.1996E+02
  18.282  0.1449E+00  0.1996E+02
  18.292  0.1377E+00  0.1996E+02
  18.302  0.1304E+00  0.1996E+02
  18.312  0.1230E+00  0.1996E+02
  18.322  0.1157E+00  0.1996E+02
  18.332  0.1086E+00  0.1997E+02
  18.342  0.1018E+00  0.1997E+02
  18.352  0.9551E-01  0.1997E+02
  18.362  0.8973E-01  0.1997E+02
  18.372  0.8457E-01  0.1997E+02
  18.382  0.8008E-01  0.1997E+02
  18.392  0.7631E-01  0.1997E+02
  18.402  0.7328E-01  0.1997E+02
  18.412  0.7098E-01  0.1997E+02
  18.422  0.6940E-01  0.1997E+02
  18.432  0.6850E-01  0.1997E+02
  18.442  0.6822E-01  0.1997E+02
  18.452  0.6849E-01  0.1998E+02
  18.462  0.6922E-01  0.1998E+02
  18.472  0.7030E-01  0.1998E+02
  18.482  0.7163E-01  0.1998E+02
  18.492  0.7309E-01  0.1998E+02
  18.502  0.7457E-01  0.1998E+02
  18.512  0.7597E-01  0.1998E+02
  18.522  0.7716E-01  0.1998E+02
  18.532  0.7808E-01  0.1998E+02
  18.542  0.7864E-01  0.1998E+02
  18.552  0.7880E-01  0.1998E+02
  18.562  0.7852E-01  0.1998E+02
  18.572  0.7779E-01  0.1998E+02
  18.582  0.7661E-01  0.1999E+02
  18.592  0.7503E-01  0.1999E+02
  18.602  0.7307E-01  0.1999E+02
  18.612  0.7080E-01  0.1999E+02
  18.622  0.6829E-01  0.1999E+02
  18.632  0.6560E-01  0.1999E+02
  18.642  0.6281E-01  0.1999E+02
  18.652  0.5998E-01  0.1999E+02
  18.662  0.5717E-01  0.1999E+02
  18.672  0.5443E-01  0.1999E+02
  18.682  0.5180E-01  0.1999E+02
  18.692  0.4929E-01  0.1999E+02
  18.702  0.4692E-01  0.1999E+02
  18.712  0.4469E-01  0.1999E+02
  18.722  0.4260E-01  0.1999E+02
  18.732  0.4062E-01  0.1999E+02
  18.742  0.3873E-01  0.1999E+02
  18.752  0.3690E-01  0.1999E+02
  18.762  0.3513E-01  0.1999E+02
  18.772  0.3337E-01  0.2000E+02
  18.782  0.3162E-01  0.2000E+02
  18.792  0.2987E-01  0.2000E+02
  18.802  0.2811E-01  0.2000E+02
  18.812  0.2633E-01  0.2000E+02
  18.822  0.2455E-01  0.2000E+02
  18.832  0.2278E-01  0.2000E+02
  18.842  0.2102E-01  0.2000E+02
  18.852  0.1930E-01  0.2000E+02
  18.862  0.1763E-01  0.2000E+02
  18.872  0.1604E-01  0.2000E+02
  18.882  0.1453E-01  0.2000E+02
  18.892  0.1312E-01  0.2000E+02
  18.902  0.1183E-01  0.2000E+02
  18.912  0.1066E-01  0.2000E+02
  18.922  0.9624E-02  0.2000E+02
  18.932  0.8722E-02  0.2000E+02
  18.942  0.7957E-02  0.2000E+02
  18.952  0.7324E-02  0.2000E+02
  18.962  0.6820E-02  0.2000E+02
  18.972  0.6436E-02  0.2000E+02
  18.982  0.6163E-02  0.2000E+02
  18.992  0.5990E-02  0.2000E+02
  19.002  0.5902E-02  0.2000E+02
  19.012  0.5886E-02  0.2000E+02
  19.022  0.5927E-02  0.2000E+02
  19.032  0.6008E-02  0.2000E+02
  19.042  0.6113E-02  0.2000E+02
  19.052  0.6227E-02  0.2000E+02
  19.062  0.6336E-02  0.2000E+02
  19.072  0.6426E-02  0.2000E+02
  19.082  0.6486E-02  0.2000E+02
  19.092  0.6505E-02  0.2000E+02
  19.102  0.6478E-02  0.2000E+02
  19.112  0.6399E-02  0.2000E+02
  19.122  0.6267E-02  0.2000E+02
  19.132  0.6081E-02  0.2000E+02
  19.142  0.5844E-02  0.2000E+02
  19.152  0.5562E-02  0.2000E+02
  19.162  0.5241E-02  0.2000E+02
  19.172  0.4887E-02  0.2000E+02
  19.182  0.4511E-02  0.2000E+02
  19.192  0.4120E-02  0.2000E+02
  19.202  0.3724E-02  0.2000E+02
  19.212  0.3330E-02  0.2000E+02
  19.222  0.2946E-02  0.2000E+02
  19.232  0.2579E-02  0.2000E+02
  19.242  0.2234E-02  0.2000E+02
  19.252  0.1914E-02  0.2000E+02
  19.262  0.1622E-02  0.2000E+02
  19.272  0.1360E-02  0.2000E+02
  19.282  0.1129E-02  0.2000E+02
  19.292  0.9263E-03  0.2000E+02
  19.302  0.7521E-03  0.2000E+02
  19.312  0.6041E-03  0.2000E+02
  19.322  0.4800E-03  0.2000E+02
  19.332  0.3773E-03  0.2000E+02
  19.342  0.2934E-03  0.2000E+02
  19.352  0.2257E-03  0.2000E+02
  19.362  0.1718E-03  0.2000E+02
  19.372  0.1293E-03  0.2000E+02
  19.382  0.9630E-04  0.2000E+02
  19.392  0.7095E-04  0.2000E+02
  19.402  0.5171E-04  0.2000E+02
  19.412  0.3728E-04  0.2000E+02
  19.422  0.2659E-04  0.2000E+02
  19.432  0.1876E-04  0.2000E+02
  19.442  0.1310E-04  0.2000E+02
  19.452  0.9043E-05  0.2000E+02
  19.462  0.6177E-05  0.2000E+02
  19.472  0.4174E-05  0.2000E+02
  19.482  0.2790E-05  0.2000E+02
  19.492  0.1845E-05  0.2000E+02
  19.502  0.1207E-05  0.2000E+02
  19.512  0.7812E-06  0.2000E+02
