#  E (eV)   dos(E)     Int dos(E) EFermi =    6.588 eV
  -8.628  0.3760E-03  0.3760E-05
  -8.618  0.5942E-03  0.9701E-05
  -8.608  0.9293E-03  0.1899E-04
  -8.598  0.1439E-02  0.3338E-04
  -8.588  0.2204E-02  0.5542E-04
  -8.578  0.3341E-02  0.8883E-04
  -8.568  0.5014E-02  0.1390E-03
  -8.558  0.7447E-02  0.2134E-03
  -8.548  0.1095E-01  0.3229E-03
  -8.538  0.1593E-01  0.4823E-03
  -8.528  0.2296E-01  0.7118E-03
  -8.518  0.3274E-01  0.1039E-02
  -8.508  0.4623E-01  0.1502E-02
  -8.498  0.6464E-01  0.2148E-02
  -8.488  0.8948E-01  0.3043E-02
  -8.478  0.1227E+00  0.4269E-02
  -8.468  0.1665E+00  0.5935E-02
  -8.458  0.2239E+00  0.8174E-02
  -8.448  0.2982E+00  0.1116E-01
  -8.438  0.3935E+00  0.1509E-01
  -8.428  0.5143E+00  0.2023E-01
  -8.418  0.6661E+00  0.2690E-01
  -8.408  0.8549E+00  0.3544E-01
  -8.398  0.1087E+01  0.4632E-01
  -8.388  0.1371E+01  0.6003E-01
  -8.378  0.1714E+01  0.7717E-01
  -8.368  0.2124E+01  0.9841E-01
  -8.358  0.2610E+01  0.1245E+00
  -8.348  0.3181E+01  0.1563E+00
  -8.338  0.3845E+01  0.1948E+00
  -8.328  0.4610E+01  0.2409E+00
  -8.318  0.5485E+01  0.2957E+00
  -8.308  0.6475E+01  0.3605E+00
  -8.298  0.7586E+01  0.4363E+00
  -8.288  0.8819E+01  0.5245E+00
  -8.278  0.1018E+02  0.6263E+00
  -8.268  0.1166E+02  0.7429E+00
  -8.258  0.1325E+02  0.8754E+00
  -8.248  0.1496E+02  0.1025E+01
  -8.238  0.1676E+02  0.1193E+01
  -8.228  0.1864E+02  0.1379E+01
  -8.218  0.2058E+02  0.1585E+01
  -8.208  0.2256E+02  0.1810E+01
  -8.198  0.2454E+02  0.2056E+01
  -8.188  0.2649E+02  0.2321E+01
  -8.178  0.2839E+02  0.2605E+01
  -8.168  0.3018E+02  0.2906E+01
  -8.158  0.3184E+02  0.3225E+01
  -8.148  0.3332E+02  0.3558E+01
  -8.138  0.3459E+02  0.3904E+01
  -8.128  0.3562E+02  0.4260E+01
  -8.118  0.3638E+02  0.4624E+01
  -8.108  0.3684E+02  0.4992E+01
  -8.098  0.3699E+02  0.5362E+01
  -8.088  0.3682E+02  0.5730E+01
  -8.078  0.3633E+02  0.6094E+01
  -8.068  0.3552E+02  0.6449E+01
  -8.058  0.3443E+02  0.6793E+01
  -8.048  0.3306E+02  0.7124E+01
  -8.038  0.3146E+02  0.7438E+01
  -8.028  0.2966E+02  0.7735E+01
  -8.018  0.2770E+02  0.8012E+01
  -8.008  0.2563E+02  0.8268E+01
  -7.998  0.2349E+02  0.8503E+01
  -7.988  0.2132E+02  0.8716E+01
  -7.978  0.1916E+02  0.8908E+01
  -7.968  0.1705E+02  0.9078E+01
  -7.958  0.1503E+02  0.9229E+01
  -7.948  0.1312E+02  0.9360E+01
  -7.938  0.1134E+02  0.9473E+01
  -7.928  0.9702E+01  0.9570E+01
  -7.918  0.8219E+01  0.9653E+01
  -7.908  0.6894E+01  0.9722E+01
  -7.898  0.5724E+01  0.9779E+01
  -7.888  0.4705E+01  0.9826E+01
  -7.878  0.3828E+01  0.9864E+01
  -7.868  0.3083E+01  0.9895E+01
  -7.858  0.2458E+01  0.9920E+01
  -7.848  0.1940E+01  0.9939E+01
  -7.838  0.1516E+01  0.9954E+01
  -7.828  0.1172E+01  0.9966E+01
  -7.818  0.8968E+00  0.9975E+01
  -7.808  0.6792E+00  0.9982E+01
  -7.798  0.5092E+00  0.9987E+01
  -7.788  0.3778E+00  0.9990E+01
  -7.778  0.2774E+00  0.9993E+01
  -7.768  0.2016E+00  0.9995E+01
  -7.758  0.1450E+00  0.9997E+01
  -7.748  0.1032E+00  0.9998E+01
  -7.738  0.7269E-01  0.9998E+01
  -7.728  0.5067E-01  0.9999E+01
  -7.718  0.3496E-01  0.9999E+01
  -7.708  0.2386E-01  0.1000E+02
  -7.698  0.1612E-01  0.1000E+02
  -7.688  0.1078E-01  0.1000E+02
  -7.678  0.7129E-02  0.1000E+02
  -7.668  0.4667E-02  0.1000E+02
  -7.658  0.3023E-02  0.1000E+02
  -7.648  0.1938E-02  0.1000E+02
  -7.638  0.1229E-02  0.1000E+02
  -7.628  0.7713E-03  0.1000E+02
  -7.618  0.4790E-03  0.1000E+02
  -7.608  0.2944E-03  0.1000E+02
  -7.598  0.1790E-03  0.1000E+02
  -7.588  0.1077E-03  0.1000E+02
  -7.578  0.6410E-04  0.1000E+02
  -7.568  0.3776E-04  0.1000E+02
  -7.558  0.2201E-04  0.1000E+02
  -7.548  0.1269E-04  0.1000E+02
  -7.538  0.7241E-05  0.1000E+02
  -7.528  0.4088E-05  0.1000E+02
  -7.518  0.2284E-05  0.1000E+02
  -7.508  0.1262E-05  0.1000E+02
  -7.498  0.6902E-06  0.1000E+02
  -7.488  0.3734E-06  0.1000E+02
  -7.478  0.1999E-06  0.1000E+02
  -7.468  0.1059E-06  0.1000E+02
  -7.458  0.5549E-07  0.1000E+02
  -7.448  0.2877E-07  0.1000E+02
  -7.438  0.1476E-07  0.1000E+02
  -7.428  0.7490E-08  0.1000E+02
  -7.418  0.3761E-08  0.1000E+02
  -7.408  0.1868E-08  0.1000E+02
  -7.398  0.9184E-09  0.1000E+02
  -7.388  0.4466E-09  0.1000E+02
  -7.378  0.2149E-09  0.1000E+02
  -7.368  0.1023E-09  0.1000E+02
  -7.358  0.4817E-10  0.1000E+02
  -7.348  0.2244E-10  0.1000E+02
  -7.338  0.1035E-10  0.1000E+02
  -7.328  0.4719E-11  0.1000E+02
  -7.318  0.2129E-11  0.1000E+02
  -7.308  0.9504E-12  0.1000E+02
  -7.298  0.4197E-12  0.1000E+02
  -7.288  0.1834E-12  0.1000E+02
  -7.278  0.7928E-13  0.1000E+02
  -7.268  0.3390E-13  0.1000E+02
  -7.258  0.1434E-13  0.1000E+02
  -7.248  0.6004E-14  0.1000E+02
  -7.238  0.2487E-14  0.1000E+02
  -7.228  0.1019E-14  0.1000E+02
  -7.218  0.4129E-15  0.1000E+02
  -7.208  0.1656E-15  0.1000E+02
  -7.198  0.6569E-16  0.1000E+02
  -7.188  0.2578E-16  0.1000E+02
  -7.178  0.1001E-16  0.1000E+02
  -7.168  0.3845E-17  0.1000E+02
  -7.158  0.1461E-17  0.1000E+02
  -7.148  0.5494E-18  0.1000E+02
  -7.138  0.2043E-18  0.1000E+02
  -7.128  0.7519E-19  0.1000E+02
  -7.118  0.2737E-19  0.1000E+02
  -7.108  0.9858E-20  0.1000E+02
  -7.098  0.3512E-20  0.1000E+02
  -7.088  0.1238E-20  0.1000E+02
  -7.078  0.4317E-21  0.1000E+02
  -7.068  0.1489E-21  0.1000E+02
  -7.058  0.5083E-22  0.1000E+02
  -7.048  0.1716E-22  0.1000E+02
  -7.038  0.5732E-23  0.1000E+02
  -7.028  0.1894E-23  0.1000E+02
  -7.018  0.6193E-24  0.1000E+02
  -7.008  0.2003E-24  0.1000E+02
  -6.998  0.6408E-25  0.1000E+02
  -6.988  0.2028E-25  0.1000E+02
  -6.978  0.6352E-26  0.1000E+02
  -6.968  0.1968E-26  0.1000E+02
  -6.958  0.6030E-27  0.1000E+02
  -6.948  0.1828E-27  0.1000E+02
  -6.938  0.5484E-28  0.1000E+02
  -6.928  0.1627E-28  0.1000E+02
  -6.918  0.4777E-29  0.1000E+02
  -6.908  0.1390E-29  0.1000E+02
  -6.898  0.4074E-30  0.1000E+02
  -6.888  0.1429E-30  0.1000E+02
  -6.878  0.1299E-30  0.1000E+02
  -6.868  0.3302E-30  0.1000E+02
  -6.858  0.1045E-29  0.1000E+02
  -6.848  0.3345E-29  0.1000E+02
  -6.838  0.1062E-28  0.1000E+02
  -6.828  0.3336E-28  0.1000E+02
  -6.818  0.1037E-27  0.1000E+02
  -6.808  0.3190E-27  0.1000E+02
  -6.798  0.9708E-27  0.1000E+02
  -6.788  0.2924E-26  0.1000E+02
  -6.778  0.8712E-26  0.1000E+02
  -6.768  0.2569E-25  0.1000E+02
  -6.758  0.7495E-25  0.1000E+02
  -6.748  0.2164E-24  0.1000E+02
  -6.738  0.6182E-24  0.1000E+02
  -6.728  0.1747E-23  0.1000E+02
  -6.718  0.4888E-23  0.1000E+02
  -6.708  0.1353E-22  0.1000E+02
  -6.698  0.3705E-22  0.1000E+02
  -6.688  0.1004E-21  0.1000E+02
  -6.678  0.2693E-21  0.1000E+02
  -6.668  0.7145E-21  0.1000E+02
  -6.658  0.1876E-20  0.1000E+02
  -6.648  0.4875E-20  0.1000E+02
  -6.638  0.1254E-19  0.1000E+02
  -6.628  0.3189E-19  0.1000E+02
  -6.618  0.8030E-19  0.1000E+02
  -6.608  0.2000E-18  0.1000E+02
  -6.598  0.4932E-18  0.1000E+02
  -6.588  0.1203E-17  0.1000E+02
  -6.578  0.2905E-17  0.1000E+02
  -6.568  0.6939E-17  0.1000E+02
  -6.558  0.1640E-16  0.1000E+02
  -6.548  0.3837E-16  0.1000E+02
  -6.538  0.8883E-16  0.1000E+02
  -6.528  0.2035E-15  0.1000E+02
  -6.518  0.4613E-15  0.1000E+02
  -6.508  0.1035E-14  0.1000E+02
  -6.498  0.2297E-14  0.1000E+02
  -6.488  0.5046E-14  0.1000E+02
  -6.478  0.1097E-13  0.1000E+02
  -6.468  0.2360E-13  0.1000E+02
  -6.458  0.5025E-13  0.1000E+02
  -6.448  0.1059E-12  0.1000E+02
  -6.438  0.2207E-12  0.1000E+02
  -6.428  0.4554E-12  0.1000E+02
  -6.418  0.9299E-12  0.1000E+02
  -6.408  0.1879E-11  0.1000E+02
  -6.398  0.3758E-11  0.1000E+02
  -6.388  0.7437E-11  0.1000E+02
  -6.378  0.1457E-10  0.1000E+02
  -6.368  0.2823E-10  0.1000E+02
  -6.358  0.5416E-10  0.1000E+02
  -6.348  0.1028E-09  0.1000E+02
  -6.338  0.1932E-09  0.1000E+02
  -6.328  0.3592E-09  0.1000E+02
  -6.318  0.6610E-09  0.1000E+02
  -6.308  0.1204E-08  0.1000E+02
  -6.298  0.2170E-08  0.1000E+02
  -6.288  0.3872E-08  0.1000E+02
  -6.278  0.6837E-08  0.1000E+02
  -6.268  0.1195E-07  0.1000E+02
  -6.258  0.2067E-07  0.1000E+02
  -6.248  0.3539E-07  0.1000E+02
  -6.238  0.5997E-07  0.1000E+02
  -6.228  0.1006E-06  0.1000E+02
  -6.218  0.1670E-06  0.1000E+02
  -6.208  0.2745E-06  0.1000E+02
  -6.198  0.4465E-06  0.1000E+02
  -6.188  0.7190E-06  0.1000E+02
  -6.178  0.1146E-05  0.1000E+02
  -6.168  0.1809E-05  0.1000E+02
  -6.158  0.2826E-05  0.1000E+02
  -6.148  0.4370E-05  0.1000E+02
  -6.138  0.6692E-05  0.1000E+02
  -6.128  0.1014E-04  0.1000E+02
  -6.118  0.1522E-04  0.1000E+02
  -6.108  0.2262E-04  0.1000E+02
  -6.098  0.3329E-04  0.1000E+02
  -6.088  0.4850E-04  0.1000E+02
  -6.078  0.6997E-04  0.1000E+02
  -6.068  0.9997E-04  0.1000E+02
  -6.058  0.1414E-03  0.1000E+02
  -6.048  0.1982E-03  0.1000E+02
  -6.038  0.2750E-03  0.1000E+02
  -6.028  0.3780E-03  0.1000E+02
  -6.018  0.5147E-03  0.1000E+02
  -6.008  0.6941E-03  0.1000E+02
  -5.998  0.9274E-03  0.1000E+02
  -5.988  0.1228E-02  0.1000E+02
  -5.978  0.1610E-02  0.1000E+02
  -5.968  0.2092E-02  0.1000E+02
  -5.958  0.2694E-02  0.1000E+02
  -5.948  0.3438E-02  0.1000E+02
  -5.938  0.4348E-02  0.1000E+02
  -5.928  0.5451E-02  0.1000E+02
  -5.918  0.6774E-02  0.1000E+02
  -5.908  0.8347E-02  0.1000E+02
  -5.898  0.1020E-01  0.1000E+02
  -5.888  0.1235E-01  0.1000E+02
  -5.878  0.1484E-01  0.1000E+02
  -5.868  0.1769E-01  0.1000E+02
  -5.858  0.2092E-01  0.1000E+02
  -5.848  0.2454E-01  0.1000E+02
  -5.838  0.2857E-01  0.1000E+02
  -5.828  0.3301E-01  0.1000E+02
  -5.818  0.3787E-01  0.1000E+02
  -5.808  0.4313E-01  0.1000E+02
  -5.798  0.4879E-01  0.1000E+02
  -5.788  0.5482E-01  0.1000E+02
  -5.778  0.6119E-01  0.1000E+02
  -5.768  0.6788E-01  0.1001E+02
  -5.758  0.7485E-01  0.1001E+02
  -5.748  0.8205E-01  0.1001E+02
  -5.738  0.8945E-01  0.1001E+02
  -5.728  0.9700E-01  0.1001E+02
  -5.718  0.1047E+00  0.1001E+02
  -5.708  0.1124E+00  0.1001E+02
  -5.698  0.1201E+00  0.1001E+02
  -5.688  0.1278E+00  0.1001E+02
  -5.678  0.1355E+00  0.1001E+02
  -5.668  0.1431E+00  0.1002E+02
  -5.658  0.1506E+00  0.1002E+02
  -5.648  0.1580E+00  0.1002E+02
  -5.638  0.1652E+00  0.1002E+02
  -5.628  0.1723E+00  0.1002E+02
  -5.618  0.1792E+00  0.1002E+02
  -5.608  0.1860E+00  0.1003E+02
  -5.598  0.1926E+00  0.1003E+02
  -5.588  0.1990E+00  0.1003E+02
  -5.578  0.2053E+00  0.1003E+02
  -5.568  0.2115E+00  0.1003E+02
  -5.558  0.2176E+00  0.1004E+02
  -5.548  0.2235E+00  0.1004E+02
  -5.538  0.2292E+00  0.1004E+02
  -5.528  0.2349E+00  0.1004E+02
  -5.518  0.2404E+00  0.1005E+02
  -5.508  0.2459E+00  0.1005E+02
  -5.498  0.2512E+00  0.1005E+02
  -5.488  0.2565E+00  0.1005E+02
  -5.478  0.2616E+00  0.1006E+02
  -5.468  0.2667E+00  0.1006E+02
  -5.458  0.2718E+00  0.1006E+02
  -5.448  0.2768E+00  0.1006E+02
  -5.438  0.2817E+00  0.1007E+02
  -5.428  0.2866E+00  0.1007E+02
  -5.418  0.2915E+00  0.1007E+02
  -5.408  0.2964E+00  0.1008E+02
  -5.398  0.3013E+00  0.1008E+02
  -5.388  0.3061E+00  0.1008E+02
  -5.378  0.3110E+00  0.1008E+02
  -5.368  0.3159E+00  0.1009E+02
  -5.358  0.3207E+00  0.1009E+02
  -5.348  0.3254E+00  0.1009E+02
  -5.338  0.3301E+00  0.1010E+02
  -5.328  0.3348E+00  0.1010E+02
  -5.318  0.3394E+00  0.1010E+02
  -5.308  0.3439E+00  0.1011E+02
  -5.298  0.3483E+00  0.1011E+02
  -5.288  0.3527E+00  0.1011E+02
  -5.278  0.3571E+00  0.1012E+02
  -5.268  0.3615E+00  0.1012E+02
  -5.258  0.3658E+00  0.1013E+02
  -5.248  0.3702E+00  0.1013E+02
  -5.238  0.3747E+00  0.1013E+02
  -5.228  0.3792E+00  0.1014E+02
  -5.218  0.3839E+00  0.1014E+02
  -5.208  0.3886E+00  0.1014E+02
  -5.198  0.3934E+00  0.1015E+02
  -5.188  0.3983E+00  0.1015E+02
  -5.178  0.4032E+00  0.1016E+02
  -5.168  0.4081E+00  0.1016E+02
  -5.158  0.4130E+00  0.1016E+02
  -5.148  0.4179E+00  0.1017E+02
  -5.138  0.4227E+00  0.1017E+02
  -5.128  0.4273E+00  0.1018E+02
  -5.118  0.4319E+00  0.1018E+02
  -5.108  0.4363E+00  0.1019E+02
  -5.098  0.4406E+00  0.1019E+02
  -5.088  0.4448E+00  0.1020E+02
  -5.078  0.4489E+00  0.1020E+02
  -5.068  0.4531E+00  0.1020E+02
  -5.058  0.4572E+00  0.1021E+02
  -5.048  0.4615E+00  0.1021E+02
  -5.038  0.4658E+00  0.1022E+02
  -5.028  0.4704E+00  0.1022E+02
  -5.018  0.4751E+00  0.1023E+02
  -5.008  0.4801E+00  0.1023E+02
  -4.998  0.4853E+00  0.1024E+02
  -4.988  0.4907E+00  0.1024E+02
  -4.978  0.4963E+00  0.1025E+02
  -4.968  0.5020E+00  0.1025E+02
  -4.958  0.5078E+00  0.1026E+02
  -4.948  0.5135E+00  0.1026E+02
  -4.938  0.5192E+00  0.1027E+02
  -4.928  0.5247E+00  0.1027E+02
  -4.918  0.5301E+00  0.1028E+02
  -4.908  0.5353E+00  0.1028E+02
  -4.898  0.5402E+00  0.1029E+02
  -4.888  0.5449E+00  0.1029E+02
  -4.878  0.5495E+00  0.1030E+02
  -4.868  0.5539E+00  0.1031E+02
  -4.858  0.5582E+00  0.1031E+02
  -4.848  0.5626E+00  0.1032E+02
  -4.838  0.5670E+00  0.1032E+02
  -4.828  0.5717E+00  0.1033E+02
  -4.818  0.5766E+00  0.1033E+02
  -4.808  0.5818E+00  0.1034E+02
  -4.798  0.5874E+00  0.1035E+02
  -4.788  0.5934E+00  0.1035E+02
  -4.778  0.5997E+00  0.1036E+02
  -4.768  0.6064E+00  0.1036E+02
  -4.758  0.6134E+00  0.1037E+02
  -4.748  0.6206E+00  0.1038E+02
  -4.738  0.6279E+00  0.1038E+02
  -4.728  0.6353E+00  0.1039E+02
  -4.718  0.6427E+00  0.1039E+02
  -4.708  0.6498E+00  0.1040E+02
  -4.698  0.6568E+00  0.1041E+02
  -4.688  0.6636E+00  0.1041E+02
  -4.678  0.6701E+00  0.1042E+02
  -4.668  0.6763E+00  0.1043E+02
  -4.658  0.6823E+00  0.1043E+02
  -4.648  0.6881E+00  0.1044E+02
  -4.638  0.6939E+00  0.1045E+02
  -4.628  0.6996E+00  0.1046E+02
  -4.618  0.7055E+00  0.1046E+02
  -4.608  0.7116E+00  0.1047E+02
  -4.598  0.7181E+00  0.1048E+02
  -4.588  0.7250E+00  0.1048E+02
  -4.578  0.7323E+00  0.1049E+02
  -4.568  0.7403E+00  0.1050E+02
  -4.558  0.7487E+00  0.1051E+02
  -4.548  0.7577E+00  0.1051E+02
  -4.538  0.7673E+00  0.1052E+02
  -4.528  0.7773E+00  0.1053E+02
  -4.518  0.7876E+00  0.1054E+02
  -4.508  0.7983E+00  0.1055E+02
  -4.498  0.8092E+00  0.1055E+02
  -4.488  0.8202E+00  0.1056E+02
  -4.478  0.8313E+00  0.1057E+02
  -4.468  0.8423E+00  0.1058E+02
  -4.458  0.8533E+00  0.1059E+02
  -4.448  0.8642E+00  0.1060E+02
  -4.438  0.8751E+00  0.1060E+02
  -4.428  0.8860E+00  0.1061E+02
  -4.418  0.8970E+00  0.1062E+02
  -4.408  0.9083E+00  0.1063E+02
  -4.398  0.9199E+00  0.1064E+02
  -4.388  0.9320E+00  0.1065E+02
  -4.378  0.9447E+00  0.1066E+02
  -4.368  0.9583E+00  0.1067E+02
  -4.358  0.9727E+00  0.1068E+02
  -4.348  0.9882E+00  0.1069E+02
  -4.338  0.1005E+01  0.1070E+02
  -4.328  0.1022E+01  0.1071E+02
  -4.318  0.1041E+01  0.1072E+02
  -4.308  0.1061E+01  0.1073E+02
  -4.298  0.1081E+01  0.1074E+02
  -4.288  0.1103E+01  0.1075E+02
  -4.278  0.1125E+01  0.1076E+02
  -4.268  0.1147E+01  0.1077E+02
  -4.258  0.1170E+01  0.1079E+02
  -4.248  0.1192E+01  0.1080E+02
  -4.238  0.1214E+01  0.1081E+02
  -4.228  0.1236E+01  0.1082E+02
  -4.218  0.1257E+01  0.1083E+02
  -4.208  0.1278E+01  0.1085E+02
  -4.198  0.1297E+01  0.1086E+02
  -4.188  0.1316E+01  0.1087E+02
  -4.178  0.1334E+01  0.1089E+02
  -4.168  0.1351E+01  0.1090E+02
  -4.158  0.1367E+01  0.1091E+02
  -4.148  0.1382E+01  0.1093E+02
  -4.138  0.1396E+01  0.1094E+02
  -4.128  0.1410E+01  0.1096E+02
  -4.118  0.1422E+01  0.1097E+02
  -4.108  0.1434E+01  0.1098E+02
  -4.098  0.1444E+01  0.1100E+02
  -4.088  0.1454E+01  0.1101E+02
  -4.078  0.1463E+01  0.1103E+02
  -4.068  0.1471E+01  0.1104E+02
  -4.058  0.1477E+01  0.1106E+02
  -4.048  0.1483E+01  0.1107E+02
  -4.038  0.1487E+01  0.1109E+02
  -4.028  0.1491E+01  0.1110E+02
  -4.018  0.1494E+01  0.1112E+02
  -4.008  0.1496E+01  0.1113E+02
  -3.998  0.1497E+01  0.1115E+02
  -3.988  0.1497E+01  0.1116E+02
  -3.978  0.1498E+01  0.1118E+02
  -3.968  0.1498E+01  0.1119E+02
  -3.958  0.1497E+01  0.1121E+02
  -3.948  0.1497E+01  0.1122E+02
  -3.938  0.1497E+01  0.1124E+02
  -3.928  0.1497E+01  0.1125E+02
  -3.918  0.1497E+01  0.1127E+02
  -3.908  0.1497E+01  0.1128E+02
  -3.898  0.1498E+01  0.1130E+02
  -3.888  0.1499E+01  0.1131E+02
  -3.878  0.1500E+01  0.1133E+02
  -3.868  0.1501E+01  0.1134E+02
  -3.858  0.1503E+01  0.1136E+02
  -3.848  0.1505E+01  0.1137E+02
  -3.838  0.1507E+01  0.1139E+02
  -3.828  0.1509E+01  0.1140E+02
  -3.818  0.1512E+01  0.1142E+02
  -3.808  0.1515E+01  0.1143E+02
  -3.798  0.1518E+01  0.1145E+02
  -3.788  0.1521E+01  0.1146E+02
  -3.778  0.1525E+01  0.1148E+02
  -3.768  0.1529E+01  0.1149E+02
  -3.758  0.1533E+01  0.1151E+02
  -3.748  0.1538E+01  0.1152E+02
  -3.738  0.1543E+01  0.1154E+02
  -3.728  0.1549E+01  0.1155E+02
  -3.718  0.1554E+01  0.1157E+02
  -3.708  0.1560E+01  0.1159E+02
  -3.698  0.1566E+01  0.1160E+02
  -3.688  0.1572E+01  0.1162E+02
  -3.678  0.1577E+01  0.1163E+02
  -3.668  0.1582E+01  0.1165E+02
  -3.658  0.1585E+01  0.1166E+02
  -3.648  0.1587E+01  0.1168E+02
  -3.638  0.1587E+01  0.1170E+02
  -3.628  0.1585E+01  0.1171E+02
  -3.618  0.1580E+01  0.1173E+02
  -3.608  0.1572E+01  0.1174E+02
  -3.598  0.1560E+01  0.1176E+02
  -3.588  0.1543E+01  0.1177E+02
  -3.578  0.1522E+01  0.1179E+02
  -3.568  0.1496E+01  0.1181E+02
  -3.558  0.1464E+01  0.1182E+02
  -3.548  0.1427E+01  0.1183E+02
  -3.538  0.1385E+01  0.1185E+02
  -3.528  0.1337E+01  0.1186E+02
  -3.518  0.1283E+01  0.1187E+02
  -3.508  0.1225E+01  0.1189E+02
  -3.498  0.1163E+01  0.1190E+02
  -3.488  0.1096E+01  0.1191E+02
  -3.478  0.1027E+01  0.1192E+02
  -3.468  0.9551E+00  0.1193E+02
  -3.458  0.8821E+00  0.1194E+02
  -3.448  0.8087E+00  0.1195E+02
  -3.438  0.7358E+00  0.1195E+02
  -3.428  0.6643E+00  0.1196E+02
  -3.418  0.5949E+00  0.1197E+02
  -3.408  0.5285E+00  0.1197E+02
  -3.398  0.4655E+00  0.1198E+02
  -3.388  0.4066E+00  0.1198E+02
  -3.378  0.3522E+00  0.1198E+02
  -3.368  0.3023E+00  0.1199E+02
  -3.358  0.2572E+00  0.1199E+02
  -3.348  0.2169E+00  0.1199E+02
  -3.338  0.1813E+00  0.1199E+02
  -3.328  0.1501E+00  0.1199E+02
  -3.318  0.1231E+00  0.1200E+02
  -3.308  0.1001E+00  0.1200E+02
  -3.298  0.8058E-01  0.1200E+02
  -3.288  0.6427E-01  0.1200E+02
  -3.278  0.5077E-01  0.1200E+02
  -3.268  0.3973E-01  0.1200E+02
  -3.258  0.3079E-01  0.1200E+02
  -3.248  0.2363E-01  0.1200E+02
  -3.238  0.1796E-01  0.1200E+02
  -3.228  0.1351E-01  0.1200E+02
  -3.218  0.1007E-01  0.1200E+02
  -3.208  0.7430E-02  0.1200E+02
  -3.198  0.5429E-02  0.1200E+02
  -3.188  0.3927E-02  0.1200E+02
  -3.178  0.2812E-02  0.1200E+02
  -3.168  0.1994E-02  0.1200E+02
  -3.158  0.1400E-02  0.1200E+02
  -3.148  0.9728E-03  0.1200E+02
  -3.138  0.6693E-03  0.1200E+02
  -3.128  0.4558E-03  0.1200E+02
  -3.118  0.3073E-03  0.1200E+02
  -3.108  0.2051E-03  0.1200E+02
  -3.098  0.1355E-03  0.1200E+02
  -3.088  0.8860E-04  0.1200E+02
  -3.078  0.5735E-04  0.1200E+02
  -3.068  0.3674E-04  0.1200E+02
  -3.058  0.2330E-04  0.1200E+02
  -3.048  0.1463E-04  0.1200E+02
  -3.038  0.9088E-05  0.1200E+02
  -3.028  0.5589E-05  0.1200E+02
  -3.018  0.3402E-05  0.1200E+02
  -3.008  0.2049E-05  0.1200E+02
  -2.998  0.1222E-05  0.1200E+02
  -2.988  0.7212E-06  0.1200E+02
  -2.978  0.4212E-06  0.1200E+02
  -2.968  0.2435E-06  0.1200E+02
  -2.958  0.1393E-06  0.1200E+02
  -2.948  0.7888E-07  0.1200E+02
  -2.938  0.4421E-07  0.1200E+02
  -2.928  0.2452E-07  0.1200E+02
  -2.918  0.1346E-07  0.1200E+02
  -2.908  0.7311E-08  0.1200E+02
  -2.898  0.3930E-08  0.1200E+02
  -2.888  0.2091E-08  0.1200E+02
  -2.878  0.1101E-08  0.1200E+02
  -2.868  0.5738E-09  0.1200E+02
  -2.858  0.2959E-09  0.1200E+02
  -2.848  0.1510E-09  0.1200E+02
  -2.838  0.7628E-10  0.1200E+02
  -2.828  0.3813E-10  0.1200E+02
  -2.818  0.1886E-10  0.1200E+02
  -2.808  0.9231E-11  0.1200E+02
  -2.798  0.4472E-11  0.1200E+02
  -2.788  0.2144E-11  0.1200E+02
  -2.778  0.1017E-11  0.1200E+02
  -2.768  0.4775E-12  0.1200E+02
  -2.758  0.2218E-12  0.1200E+02
  -2.748  0.1020E-12  0.1200E+02
  -2.738  0.4640E-13  0.1200E+02
  -2.728  0.2089E-13  0.1200E+02
  -2.718  0.9307E-14  0.1200E+02
  -2.708  0.4103E-14  0.1200E+02
  -2.698  0.1790E-14  0.1200E+02
  -2.688  0.7729E-15  0.1200E+02
  -2.678  0.3302E-15  0.1200E+02
  -2.668  0.1396E-15  0.1200E+02
  -2.658  0.5841E-16  0.1200E+02
  -2.648  0.2418E-16  0.1200E+02
  -2.638  0.9905E-17  0.1200E+02
  -2.628  0.4015E-17  0.1200E+02
  -2.618  0.1611E-17  0.1200E+02
  -2.608  0.6394E-18  0.1200E+02
  -2.598  0.2511E-18  0.1200E+02
  -2.588  0.9761E-19  0.1200E+02
  -2.578  0.3754E-19  0.1200E+02
  -2.568  0.1429E-19  0.1200E+02
  -2.558  0.5380E-20  0.1200E+02
  -2.548  0.2005E-20  0.1200E+02
  -2.538  0.7393E-21  0.1200E+02
  -2.528  0.2698E-21  0.1200E+02
  -2.518  0.9739E-22  0.1200E+02
  -2.508  0.3479E-22  0.1200E+02
  -2.498  0.1230E-22  0.1200E+02
  -2.488  0.4302E-23  0.1200E+02
  -2.478  0.1489E-23  0.1200E+02
  -2.468  0.5100E-24  0.1200E+02
  -2.458  0.1728E-24  0.1200E+02
  -2.448  0.5795E-25  0.1200E+02
  -2.438  0.1923E-25  0.1200E+02
  -2.428  0.6312E-26  0.1200E+02
  -2.418  0.2050E-26  0.1200E+02
  -2.408  0.6590E-27  0.1200E+02
  -2.398  0.2096E-27  0.1200E+02
  -2.388  0.6595E-28  0.1200E+02
  -2.378  0.2053E-28  0.1200E+02
  -2.368  0.6327E-29  0.1200E+02
  -2.358  0.1929E-29  0.1200E+02
  -2.348  0.5817E-30  0.1200E+02
  -2.338  0.1736E-30  0.1200E+02
  -2.328  0.5126E-31  0.1200E+02
  -2.318  0.1498E-31  0.1200E+02
  -2.308  0.4330E-32  0.1200E+02
  -2.298  0.1238E-32  0.1200E+02
  -2.288  0.3505E-33  0.1200E+02
  -2.278  0.9814E-34  0.1200E+02
  -2.268  0.2719E-34  0.1200E+02
  -2.258  0.7454E-35  0.1200E+02
  -2.248  0.2022E-35  0.1200E+02
  -2.238  0.5425E-36  0.1200E+02
  -2.228  0.1441E-36  0.1200E+02
  -2.218  0.3784E-37  0.1200E+02
  -2.208  0.9836E-38  0.1200E+02
  -2.198  0.2530E-38  0.1200E+02
  -2.188  0.6437E-39  0.1200E+02
  -2.178  0.1620E-39  0.1200E+02
  -2.168  0.4036E-40  0.1200E+02
  -2.158  0.9947E-41  0.1200E+02
  -2.148  0.2425E-41  0.1200E+02
  -2.138  0.5851E-42  0.1200E+02
  -2.128  0.1396E-42  0.1200E+02
  -2.118  0.3298E-43  0.1200E+02
  -2.108  0.7705E-44  0.1200E+02
  -2.098  0.1781E-44  0.1200E+02
  -2.088  0.4073E-45  0.1200E+02
  -2.078  0.9216E-46  0.1200E+02
  -2.068  0.2063E-46  0.1200E+02
  -2.058  0.4570E-47  0.1200E+02
  -2.048  0.1001E-47  0.1200E+02
  -2.038  0.2171E-48  0.1200E+02
  -2.028  0.4657E-49  0.1200E+02
  -2.018  0.9883E-50  0.1200E+02
  -2.008  0.2075E-50  0.1200E+02
  -1.998  0.4311E-51  0.1200E+02
  -1.988  0.8859E-52  0.1200E+02
  -1.978  0.1801E-52  0.1200E+02
  -1.968  0.3624E-53  0.1200E+02
  -1.958  0.7212E-54  0.1200E+02
  -1.948  0.1420E-54  0.1200E+02
  -1.938  0.2766E-55  0.1200E+02
  -1.928  0.5331E-56  0.1200E+02
  -1.918  0.1017E-56  0.1200E+02
  -1.908  0.1918E-57  0.1200E+02
  -1.898  0.3579E-58  0.1200E+02
  -1.888  0.6608E-59  0.1200E+02
  -1.878  0.1207E-59  0.1200E+02
  -1.868  0.2181E-60  0.1200E+02
  -1.858  0.3900E-61  0.1200E+02
  -1.848  0.6899E-62  0.1200E+02
  -1.838  0.1207E-62  0.1200E+02
  -1.828  0.2090E-63  0.1200E+02
  -1.818  0.3580E-64  0.1200E+02
  -1.808  0.6067E-65  0.1200E+02
  -1.798  0.1017E-65  0.1200E+02
  -1.788  0.1687E-66  0.1200E+02
  -1.778  0.2768E-67  0.1200E+02
  -1.768  0.4494E-68  0.1200E+02
  -1.758  0.7217E-69  0.1200E+02
  -1.748  0.1147E-69  0.1200E+02
  -1.738  0.1808E-70  0.1200E+02
  -1.728  0.3143E-71  0.1200E+02
  -1.718  0.2627E-71  0.1200E+02
  -1.708  0.1410E-70  0.1200E+02
  -1.698  0.8873E-70  0.1200E+02
  -1.688  0.5549E-69  0.1200E+02
  -1.678  0.3434E-68  0.1200E+02
  -1.668  0.2102E-67  0.1200E+02
  -1.658  0.1273E-66  0.1200E+02
  -1.648  0.7627E-66  0.1200E+02
  -1.638  0.4521E-65  0.1200E+02
  -1.628  0.2651E-64  0.1200E+02
  -1.618  0.1538E-63  0.1200E+02
  -1.608  0.8827E-63  0.1200E+02
  -1.598  0.5012E-62  0.1200E+02
  -1.588  0.2815E-61  0.1200E+02
  -1.578  0.1565E-60  0.1200E+02
  -1.568  0.8603E-60  0.1200E+02
  -1.558  0.4679E-59  0.1200E+02
  -1.548  0.2518E-58  0.1200E+02
  -1.538  0.1341E-57  0.1200E+02
  -1.528  0.7061E-57  0.1200E+02
  -1.518  0.3679E-56  0.1200E+02
  -1.508  0.1897E-55  0.1200E+02
  -1.498  0.9673E-55  0.1200E+02
  -1.488  0.4881E-54  0.1200E+02
  -1.478  0.2436E-53  0.1200E+02
  -1.468  0.1203E-52  0.1200E+02
  -1.458  0.5879E-52  0.1200E+02
  -1.448  0.2841E-51  0.1200E+02
  -1.438  0.1359E-50  0.1200E+02
  -1.428  0.6429E-50  0.1200E+02
  -1.418  0.3009E-49  0.1200E+02
  -1.408  0.1393E-48  0.1200E+02
  -1.398  0.6384E-48  0.1200E+02
  -1.388  0.2894E-47  0.1200E+02
  -1.378  0.1298E-46  0.1200E+02
  -1.368  0.5756E-46  0.1200E+02
  -1.358  0.2527E-45  0.1200E+02
  -1.348  0.1097E-44  0.1200E+02
  -1.338  0.4713E-44  0.1200E+02
  -1.328  0.2003E-43  0.1200E+02
  -1.318  0.8424E-43  0.1200E+02
  -1.308  0.3505E-42  0.1200E+02
  -1.298  0.1442E-41  0.1200E+02
  -1.288  0.5874E-41  0.1200E+02
  -1.278  0.2366E-40  0.1200E+02
  -1.268  0.9432E-40  0.1200E+02
  -1.258  0.3720E-39  0.1200E+02
  -1.248  0.1451E-38  0.1200E+02
  -1.238  0.5602E-38  0.1200E+02
  -1.228  0.2139E-37  0.1200E+02
  -1.218  0.8082E-37  0.1200E+02
  -1.208  0.3021E-36  0.1200E+02
  -1.198  0.1117E-35  0.1200E+02
  -1.188  0.4089E-35  0.1200E+02
  -1.178  0.1480E-34  0.1200E+02
  -1.168  0.5301E-34  0.1200E+02
  -1.158  0.1879E-33  0.1200E+02
  -1.148  0.6587E-33  0.1200E+02
  -1.138  0.2285E-32  0.1200E+02
  -1.128  0.7841E-32  0.1200E+02
  -1.118  0.2662E-31  0.1200E+02
  -1.108  0.8944E-31  0.1200E+02
  -1.098  0.2973E-30  0.1200E+02
  -1.088  0.9777E-30  0.1200E+02
  -1.078  0.3181E-29  0.1200E+02
  -1.068  0.1024E-28  0.1200E+02
  -1.058  0.3262E-28  0.1200E+02
  -1.048  0.1028E-27  0.1200E+02
  -1.038  0.3205E-27  0.1200E+02
  -1.028  0.9887E-27  0.1200E+02
  -1.018  0.3018E-26  0.1200E+02
  -1.008  0.9113E-26  0.1200E+02
  -0.998  0.2723E-25  0.1200E+02
  -0.988  0.8051E-25  0.1200E+02
  -0.978  0.2355E-24  0.1200E+02
  -0.968  0.6816E-24  0.1200E+02
  -0.958  0.1952E-23  0.1200E+02
  -0.948  0.5530E-23  0.1200E+02
  -0.938  0.1550E-22  0.1200E+02
  -0.928  0.4301E-22  0.1200E+02
  -0.918  0.1180E-21  0.1200E+02
  -0.908  0.3206E-21  0.1200E+02
  -0.898  0.8614E-21  0.1200E+02
  -0.888  0.2290E-20  0.1200E+02
  -0.878  0.6025E-20  0.1200E+02
  -0.868  0.1568E-19  0.1200E+02
  -0.858  0.4040E-19  0.1200E+02
  -0.848  0.1030E-18  0.1200E+02
  -0.838  0.2596E-18  0.1200E+02
  -0.828  0.6479E-18  0.1200E+02
  -0.818  0.1600E-17  0.1200E+02
  -0.808  0.3909E-17  0.1200E+02
  -0.798  0.9450E-17  0.1200E+02
  -0.788  0.2261E-16  0.1200E+02
  -0.778  0.5352E-16  0.1200E+02
  -0.768  0.1254E-15  0.1200E+02
  -0.758  0.2906E-15  0.1200E+02
  -0.748  0.6665E-15  0.1200E+02
  -0.738  0.1513E-14  0.1200E+02
  -0.728  0.3398E-14  0.1200E+02
  -0.718  0.7554E-14  0.1200E+02
  -0.708  0.1662E-13  0.1200E+02
  -0.698  0.3617E-13  0.1200E+02
  -0.688  0.7791E-13  0.1200E+02
  -0.678  0.1661E-12  0.1200E+02
  -0.668  0.3504E-12  0.1200E+02
  -0.658  0.7315E-12  0.1200E+02
  -0.648  0.1511E-11  0.1200E+02
  -0.638  0.3090E-11  0.1200E+02
  -0.628  0.6253E-11  0.1200E+02
  -0.618  0.1252E-10  0.1200E+02
  -0.608  0.2482E-10  0.1200E+02
  -0.598  0.4870E-10  0.1200E+02
  -0.588  0.9454E-10  0.1200E+02
  -0.578  0.1817E-09  0.1200E+02
  -0.568  0.3455E-09  0.1200E+02
  -0.558  0.6504E-09  0.1200E+02
  -0.548  0.1212E-08  0.1200E+02
  -0.538  0.2235E-08  0.1200E+02
  -0.528  0.4079E-08  0.1200E+02
  -0.518  0.7369E-08  0.1200E+02
  -0.508  0.1318E-07  0.1200E+02
  -0.498  0.2333E-07  0.1200E+02
  -0.488  0.4088E-07  0.1200E+02
  -0.478  0.7091E-07  0.1200E+02
  -0.468  0.1218E-06  0.1200E+02
  -0.458  0.2070E-06  0.1200E+02
  -0.448  0.3483E-06  0.1200E+02
  -0.438  0.5802E-06  0.1200E+02
  -0.428  0.9569E-06  0.1200E+02
  -0.418  0.1562E-05  0.1200E+02
  -0.408  0.2526E-05  0.1200E+02
  -0.398  0.4042E-05  0.1200E+02
  -0.388  0.6406E-05  0.1200E+02
  -0.378  0.1005E-04  0.1200E+02
  -0.368  0.1561E-04  0.1200E+02
  -0.358  0.2402E-04  0.1200E+02
  -0.348  0.3659E-04  0.1200E+02
  -0.338  0.5520E-04  0.1200E+02
  -0.328  0.8246E-04  0.1200E+02
  -0.318  0.1220E-03  0.1200E+02
  -0.308  0.1788E-03  0.1200E+02
  -0.298  0.2594E-03  0.1200E+02
  -0.288  0.3729E-03  0.1200E+02
  -0.278  0.5309E-03  0.1200E+02
  -0.268  0.7488E-03  0.1200E+02
  -0.258  0.1046E-02  0.1200E+02
  -0.248  0.1448E-02  0.1200E+02
  -0.238  0.1986E-02  0.1200E+02
  -0.228  0.2699E-02  0.1200E+02
  -0.218  0.3634E-02  0.1200E+02
  -0.208  0.4850E-02  0.1200E+02
  -0.198  0.6414E-02  0.1200E+02
  -0.188  0.8409E-02  0.1200E+02
  -0.178  0.1093E-01  0.1200E+02
  -0.168  0.1408E-01  0.1200E+02
  -0.158  0.1798E-01  0.1200E+02
  -0.148  0.2278E-01  0.1200E+02
  -0.138  0.2861E-01  0.1200E+02
  -0.128  0.3565E-01  0.1200E+02
  -0.118  0.4407E-01  0.1200E+02
  -0.108  0.5405E-01  0.1200E+02
  -0.098  0.6578E-01  0.1200E+02
  -0.088  0.7947E-01  0.1200E+02
  -0.078  0.9529E-01  0.1201E+02
  -0.068  0.1135E+00  0.1201E+02
  -0.058  0.1341E+00  0.1201E+02
  -0.048  0.1575E+00  0.1201E+02
  -0.038  0.1838E+00  0.1201E+02
  -0.028  0.2131E+00  0.1201E+02
  -0.018  0.2455E+00  0.1202E+02
  -0.008  0.2812E+00  0.1202E+02
   0.002  0.3202E+00  0.1202E+02
   0.012  0.3627E+00  0.1203E+02
   0.022  0.4085E+00  0.1203E+02
   0.032  0.4579E+00  0.1203E+02
   0.042  0.5106E+00  0.1204E+02
   0.052  0.5668E+00  0.1204E+02
   0.062  0.6263E+00  0.1205E+02
   0.072  0.6890E+00  0.1206E+02
   0.082  0.7549E+00  0.1207E+02
   0.092  0.8237E+00  0.1207E+02
   0.102  0.8954E+00  0.1208E+02
   0.112  0.9697E+00  0.1209E+02
   0.122  0.1046E+01  0.1210E+02
   0.132  0.1125E+01  0.1211E+02
   0.142  0.1206E+01  0.1213E+02
   0.152  0.1288E+01  0.1214E+02
   0.162  0.1371E+01  0.1215E+02
   0.172  0.1455E+01  0.1217E+02
   0.182  0.1539E+01  0.1218E+02
   0.192  0.1623E+01  0.1220E+02
   0.202  0.1706E+01  0.1222E+02
   0.212  0.1786E+01  0.1223E+02
   0.222  0.1865E+01  0.1225E+02
   0.232  0.1940E+01  0.1227E+02
   0.242  0.2010E+01  0.1229E+02
   0.252  0.2076E+01  0.1231E+02
   0.262  0.2136E+01  0.1233E+02
   0.272  0.2188E+01  0.1236E+02
   0.282  0.2234E+01  0.1238E+02
   0.292  0.2271E+01  0.1240E+02
   0.302  0.2299E+01  0.1242E+02
   0.312  0.2318E+01  0.1245E+02
   0.322  0.2328E+01  0.1247E+02
   0.332  0.2328E+01  0.1249E+02
   0.342  0.2320E+01  0.1252E+02
   0.352  0.2303E+01  0.1254E+02
   0.362  0.2277E+01  0.1256E+02
   0.372  0.2244E+01  0.1258E+02
   0.382  0.2205E+01  0.1261E+02
   0.392  0.2160E+01  0.1263E+02
   0.402  0.2110E+01  0.1265E+02
   0.412  0.2056E+01  0.1267E+02
   0.422  0.2000E+01  0.1269E+02
   0.432  0.1942E+01  0.1271E+02
   0.442  0.1883E+01  0.1273E+02
   0.452  0.1824E+01  0.1275E+02
   0.462  0.1765E+01  0.1276E+02
   0.472  0.1707E+01  0.1278E+02
   0.482  0.1650E+01  0.1280E+02
   0.492  0.1595E+01  0.1281E+02
   0.502  0.1542E+01  0.1283E+02
   0.512  0.1491E+01  0.1284E+02
   0.522  0.1442E+01  0.1286E+02
   0.532  0.1395E+01  0.1287E+02
   0.542  0.1351E+01  0.1289E+02
   0.552  0.1309E+01  0.1290E+02
   0.562  0.1269E+01  0.1291E+02
   0.572  0.1231E+01  0.1292E+02
   0.582  0.1196E+01  0.1294E+02
   0.592  0.1163E+01  0.1295E+02
   0.602  0.1132E+01  0.1296E+02
   0.612  0.1103E+01  0.1297E+02
   0.622  0.1077E+01  0.1298E+02
   0.632  0.1052E+01  0.1299E+02
   0.642  0.1030E+01  0.1300E+02
   0.652  0.1009E+01  0.1301E+02
   0.662  0.9896E+00  0.1302E+02
   0.672  0.9718E+00  0.1303E+02
   0.682  0.9553E+00  0.1304E+02
   0.692  0.9397E+00  0.1305E+02
   0.702  0.9249E+00  0.1306E+02
   0.712  0.9106E+00  0.1307E+02
   0.722  0.8967E+00  0.1308E+02
   0.732  0.8830E+00  0.1309E+02
   0.742  0.8692E+00  0.1310E+02
   0.752  0.8554E+00  0.1310E+02
   0.762  0.8413E+00  0.1311E+02
   0.772  0.8271E+00  0.1312E+02
   0.782  0.8127E+00  0.1313E+02
   0.792  0.7981E+00  0.1314E+02
   0.802  0.7835E+00  0.1314E+02
   0.812  0.7690E+00  0.1315E+02
   0.822  0.7547E+00  0.1316E+02
   0.832  0.7409E+00  0.1317E+02
   0.842  0.7277E+00  0.1317E+02
   0.852  0.7152E+00  0.1318E+02
   0.862  0.7036E+00  0.1319E+02
   0.872  0.6930E+00  0.1320E+02
   0.882  0.6836E+00  0.1320E+02
   0.892  0.6752E+00  0.1321E+02
   0.902  0.6679E+00  0.1322E+02
   0.912  0.6616E+00  0.1322E+02
   0.922  0.6561E+00  0.1323E+02
   0.932  0.6513E+00  0.1324E+02
   0.942  0.6471E+00  0.1324E+02
   0.952  0.6430E+00  0.1325E+02
   0.962  0.6391E+00  0.1325E+02
   0.972  0.6350E+00  0.1326E+02
   0.982  0.6305E+00  0.1327E+02
   0.992  0.6256E+00  0.1327E+02
   1.002  0.6201E+00  0.1328E+02
   1.012  0.6140E+00  0.1329E+02
   1.022  0.6073E+00  0.1329E+02
   1.032  0.5999E+00  0.1330E+02
   1.042  0.5920E+00  0.1330E+02
   1.052  0.5837E+00  0.1331E+02
   1.062  0.5751E+00  0.1332E+02
   1.072  0.5663E+00  0.1332E+02
   1.082  0.5575E+00  0.1333E+02
   1.092  0.5487E+00  0.1333E+02
   1.102  0.5402E+00  0.1334E+02
   1.112  0.5319E+00  0.1334E+02
   1.122  0.5239E+00  0.1335E+02
   1.132  0.5162E+00  0.1335E+02
   1.142  0.5090E+00  0.1336E+02
   1.152  0.5021E+00  0.1336E+02
   1.162  0.4956E+00  0.1337E+02
   1.172  0.4895E+00  0.1337E+02
   1.182  0.4838E+00  0.1338E+02
   1.192  0.4785E+00  0.1338E+02
   1.202  0.4737E+00  0.1339E+02
   1.212  0.4693E+00  0.1339E+02
   1.222  0.4654E+00  0.1340E+02
   1.232  0.4620E+00  0.1340E+02
   1.242  0.4592E+00  0.1341E+02
   1.252  0.4569E+00  0.1341E+02
   1.262  0.4552E+00  0.1342E+02
   1.272  0.4540E+00  0.1342E+02
   1.282  0.4532E+00  0.1342E+02
   1.292  0.4527E+00  0.1343E+02
   1.302  0.4525E+00  0.1343E+02
   1.312  0.4524E+00  0.1344E+02
   1.322  0.4523E+00  0.1344E+02
   1.332  0.4520E+00  0.1345E+02
   1.342  0.4513E+00  0.1345E+02
   1.352  0.4501E+00  0.1346E+02
   1.362  0.4483E+00  0.1346E+02
   1.372  0.4457E+00  0.1347E+02
   1.382  0.4424E+00  0.1347E+02
   1.392  0.4382E+00  0.1347E+02
   1.402  0.4332E+00  0.1348E+02
   1.412  0.4275E+00  0.1348E+02
   1.422  0.4210E+00  0.1349E+02
   1.432  0.4138E+00  0.1349E+02
   1.442  0.4062E+00  0.1349E+02
   1.452  0.3982E+00  0.1350E+02
   1.462  0.3900E+00  0.1350E+02
   1.472  0.3817E+00  0.1351E+02
   1.482  0.3736E+00  0.1351E+02
   1.492  0.3657E+00  0.1351E+02
   1.502  0.3582E+00  0.1352E+02
   1.512  0.3513E+00  0.1352E+02
   1.522  0.3451E+00  0.1352E+02
   1.532  0.3396E+00  0.1353E+02
   1.542  0.3350E+00  0.1353E+02
   1.552  0.3312E+00  0.1353E+02
   1.562  0.3283E+00  0.1354E+02
   1.572  0.3263E+00  0.1354E+02
   1.582  0.3252E+00  0.1354E+02
   1.592  0.3249E+00  0.1355E+02
   1.602  0.3253E+00  0.1355E+02
   1.612  0.3264E+00  0.1355E+02
   1.622  0.3281E+00  0.1356E+02
   1.632  0.3301E+00  0.1356E+02
   1.642  0.3324E+00  0.1356E+02
   1.652  0.3348E+00  0.1357E+02
   1.662  0.3373E+00  0.1357E+02
   1.672  0.3395E+00  0.1357E+02
   1.682  0.3415E+00  0.1358E+02
   1.692  0.3430E+00  0.1358E+02
   1.702  0.3440E+00  0.1358E+02
   1.712  0.3444E+00  0.1359E+02
   1.722  0.3440E+00  0.1359E+02
   1.732  0.3429E+00  0.1359E+02
   1.742  0.3409E+00  0.1360E+02
   1.752  0.3382E+00  0.1360E+02
   1.762  0.3347E+00  0.1360E+02
   1.772  0.3305E+00  0.1361E+02
   1.782  0.3256E+00  0.1361E+02
   1.792  0.3202E+00  0.1361E+02
   1.802  0.3144E+00  0.1362E+02
   1.812  0.3083E+00  0.1362E+02
   1.822  0.3021E+00  0.1362E+02
   1.832  0.2959E+00  0.1363E+02
   1.842  0.2899E+00  0.1363E+02
   1.852  0.2842E+00  0.1363E+02
   1.862  0.2788E+00  0.1364E+02
   1.872  0.2739E+00  0.1364E+02
   1.882  0.2696E+00  0.1364E+02
   1.892  0.2658E+00  0.1364E+02
   1.902  0.2626E+00  0.1365E+02
   1.912  0.2599E+00  0.1365E+02
   1.922  0.2577E+00  0.1365E+02
   1.932  0.2559E+00  0.1365E+02
   1.942  0.2544E+00  0.1366E+02
   1.952  0.2531E+00  0.1366E+02
   1.962  0.2519E+00  0.1366E+02
   1.972  0.2507E+00  0.1366E+02
   1.982  0.2494E+00  0.1367E+02
   1.992  0.2481E+00  0.1367E+02
   2.002  0.2466E+00  0.1367E+02
   2.012  0.2449E+00  0.1367E+02
   2.022  0.2430E+00  0.1368E+02
   2.032  0.2411E+00  0.1368E+02
   2.042  0.2391E+00  0.1368E+02
   2.052  0.2372E+00  0.1368E+02
   2.062  0.2354E+00  0.1369E+02
   2.072  0.2337E+00  0.1369E+02
   2.082  0.2324E+00  0.1369E+02
   2.092  0.2313E+00  0.1369E+02
   2.102  0.2307E+00  0.1370E+02
   2.112  0.2305E+00  0.1370E+02
   2.122  0.2308E+00  0.1370E+02
   2.132  0.2314E+00  0.1370E+02
   2.142  0.2324E+00  0.1370E+02
   2.152  0.2338E+00  0.1371E+02
   2.162  0.2354E+00  0.1371E+02
   2.172  0.2372E+00  0.1371E+02
   2.182  0.2390E+00  0.1371E+02
   2.192  0.2407E+00  0.1372E+02
   2.202  0.2423E+00  0.1372E+02
   2.212  0.2436E+00  0.1372E+02
   2.222  0.2445E+00  0.1372E+02
   2.232  0.2449E+00  0.1373E+02
   2.242  0.2448E+00  0.1373E+02
   2.252  0.2441E+00  0.1373E+02
   2.262  0.2427E+00  0.1373E+02
   2.272  0.2406E+00  0.1374E+02
   2.282  0.2379E+00  0.1374E+02
   2.292  0.2345E+00  0.1374E+02
   2.302  0.2305E+00  0.1374E+02
   2.312  0.2260E+00  0.1374E+02
   2.322  0.2210E+00  0.1375E+02
   2.332  0.2156E+00  0.1375E+02
   2.342  0.2100E+00  0.1375E+02
   2.352  0.2042E+00  0.1375E+02
   2.362  0.1984E+00  0.1376E+02
   2.372  0.1927E+00  0.1376E+02
   2.382  0.1872E+00  0.1376E+02
   2.392  0.1821E+00  0.1376E+02
   2.402  0.1773E+00  0.1376E+02
   2.412  0.1730E+00  0.1376E+02
   2.422  0.1693E+00  0.1377E+02
   2.432  0.1661E+00  0.1377E+02
   2.442  0.1636E+00  0.1377E+02
   2.452  0.1617E+00  0.1377E+02
   2.462  0.1605E+00  0.1377E+02
   2.472  0.1598E+00  0.1377E+02
   2.482  0.1596E+00  0.1378E+02
   2.492  0.1599E+00  0.1378E+02
   2.502  0.1606E+00  0.1378E+02
   2.512  0.1616E+00  0.1378E+02
   2.522  0.1628E+00  0.1378E+02
   2.532  0.1642E+00  0.1378E+02
   2.542  0.1656E+00  0.1379E+02
   2.552  0.1670E+00  0.1379E+02
   2.562  0.1683E+00  0.1379E+02
   2.572  0.1694E+00  0.1379E+02
   2.582  0.1703E+00  0.1379E+02
   2.592  0.1711E+00  0.1379E+02
   2.602  0.1716E+00  0.1380E+02
   2.612  0.1719E+00  0.1380E+02
   2.622  0.1721E+00  0.1380E+02
   2.632  0.1722E+00  0.1380E+02
   2.642  0.1724E+00  0.1380E+02
   2.652  0.1727E+00  0.1380E+02
   2.662  0.1732E+00  0.1381E+02
   2.672  0.1740E+00  0.1381E+02
   2.682  0.1754E+00  0.1381E+02
   2.692  0.1773E+00  0.1381E+02
   2.702  0.1799E+00  0.1381E+02
   2.712  0.1833E+00  0.1382E+02
   2.722  0.1876E+00  0.1382E+02
   2.732  0.1928E+00  0.1382E+02
   2.742  0.1991E+00  0.1382E+02
   2.752  0.2065E+00  0.1382E+02
   2.762  0.2151E+00  0.1383E+02
   2.772  0.2248E+00  0.1383E+02
   2.782  0.2359E+00  0.1383E+02
   2.792  0.2482E+00  0.1383E+02
   2.802  0.2619E+00  0.1383E+02
   2.812  0.2770E+00  0.1384E+02
   2.822  0.2936E+00  0.1384E+02
   2.832  0.3117E+00  0.1384E+02
   2.842  0.3315E+00  0.1385E+02
   2.852  0.3530E+00  0.1385E+02
   2.862  0.3761E+00  0.1385E+02
   2.872  0.4011E+00  0.1386E+02
   2.882  0.4278E+00  0.1386E+02
   2.892  0.4562E+00  0.1387E+02
   2.902  0.4864E+00  0.1387E+02
   2.912  0.5181E+00  0.1388E+02
   2.922  0.5514E+00  0.1388E+02
   2.932  0.5860E+00  0.1389E+02
   2.942  0.6218E+00  0.1389E+02
   2.952  0.6586E+00  0.1390E+02
   2.962  0.6962E+00  0.1391E+02
   2.972  0.7344E+00  0.1392E+02
   2.982  0.7728E+00  0.1392E+02
   2.992  0.8114E+00  0.1393E+02
   3.002  0.8498E+00  0.1394E+02
   3.012  0.8879E+00  0.1395E+02
   3.022  0.9254E+00  0.1396E+02
   3.032  0.9622E+00  0.1397E+02
   3.042  0.9981E+00  0.1398E+02
   3.052  0.1033E+01  0.1399E+02
   3.062  0.1067E+01  0.1400E+02
   3.072  0.1099E+01  0.1401E+02
   3.082  0.1130E+01  0.1402E+02
   3.092  0.1160E+01  0.1403E+02
   3.102  0.1188E+01  0.1404E+02
   3.112  0.1214E+01  0.1406E+02
   3.122  0.1239E+01  0.1407E+02
   3.132  0.1261E+01  0.1408E+02
   3.142  0.1282E+01  0.1409E+02
   3.152  0.1301E+01  0.1411E+02
   3.162  0.1317E+01  0.1412E+02
   3.172  0.1331E+01  0.1413E+02
   3.182  0.1343E+01  0.1415E+02
   3.192  0.1352E+01  0.1416E+02
   3.202  0.1359E+01  0.1417E+02
   3.212  0.1363E+01  0.1419E+02
   3.222  0.1365E+01  0.1420E+02
   3.232  0.1365E+01  0.1422E+02
   3.242  0.1361E+01  0.1423E+02
   3.252  0.1356E+01  0.1424E+02
   3.262  0.1349E+01  0.1426E+02
   3.272  0.1339E+01  0.1427E+02
   3.282  0.1328E+01  0.1428E+02
   3.292  0.1316E+01  0.1430E+02
   3.302  0.1302E+01  0.1431E+02
   3.312  0.1287E+01  0.1432E+02
   3.322  0.1272E+01  0.1433E+02
   3.332  0.1256E+01  0.1435E+02
   3.342  0.1241E+01  0.1436E+02
   3.352  0.1226E+01  0.1437E+02
   3.362  0.1213E+01  0.1438E+02
   3.372  0.1200E+01  0.1440E+02
   3.382  0.1189E+01  0.1441E+02
   3.392  0.1179E+01  0.1442E+02
   3.402  0.1171E+01  0.1443E+02
   3.412  0.1165E+01  0.1444E+02
   3.422  0.1161E+01  0.1445E+02
   3.432  0.1158E+01  0.1447E+02
   3.442  0.1158E+01  0.1448E+02
   3.452  0.1158E+01  0.1449E+02
   3.462  0.1160E+01  0.1450E+02
   3.472  0.1163E+01  0.1451E+02
   3.482  0.1166E+01  0.1452E+02
   3.492  0.1169E+01  0.1454E+02
   3.502  0.1173E+01  0.1455E+02
   3.512  0.1175E+01  0.1456E+02
   3.522  0.1178E+01  0.1457E+02
   3.532  0.1179E+01  0.1458E+02
   3.542  0.1179E+01  0.1459E+02
   3.552  0.1178E+01  0.1461E+02
   3.562  0.1175E+01  0.1462E+02
   3.572  0.1172E+01  0.1463E+02
   3.582  0.1168E+01  0.1464E+02
   3.592  0.1163E+01  0.1465E+02
   3.602  0.1157E+01  0.1466E+02
   3.612  0.1151E+01  0.1468E+02
   3.622  0.1145E+01  0.1469E+02
   3.632  0.1140E+01  0.1470E+02
   3.642  0.1135E+01  0.1471E+02
   3.652  0.1131E+01  0.1472E+02
   3.662  0.1128E+01  0.1473E+02
   3.672  0.1127E+01  0.1474E+02
   3.682  0.1127E+01  0.1476E+02
   3.692  0.1129E+01  0.1477E+02
   3.702  0.1132E+01  0.1478E+02
   3.712  0.1137E+01  0.1479E+02
   3.722  0.1144E+01  0.1480E+02
   3.732  0.1152E+01  0.1481E+02
   3.742  0.1162E+01  0.1482E+02
   3.752  0.1173E+01  0.1484E+02
   3.762  0.1184E+01  0.1485E+02
   3.772  0.1197E+01  0.1486E+02
   3.782  0.1211E+01  0.1487E+02
   3.792  0.1225E+01  0.1488E+02
   3.802  0.1239E+01  0.1490E+02
   3.812  0.1254E+01  0.1491E+02
   3.822  0.1269E+01  0.1492E+02
   3.832  0.1285E+01  0.1493E+02
   3.842  0.1301E+01  0.1495E+02
   3.852  0.1317E+01  0.1496E+02
   3.862  0.1333E+01  0.1497E+02
   3.872  0.1349E+01  0.1499E+02
   3.882  0.1364E+01  0.1500E+02
   3.892  0.1380E+01  0.1502E+02
   3.902  0.1395E+01  0.1503E+02
   3.912  0.1410E+01  0.1504E+02
   3.922  0.1424E+01  0.1506E+02
   3.932  0.1437E+01  0.1507E+02
   3.942  0.1449E+01  0.1509E+02
   3.952  0.1460E+01  0.1510E+02
   3.962  0.1469E+01  0.1512E+02
   3.972  0.1477E+01  0.1513E+02
   3.982  0.1484E+01  0.1515E+02
   3.992  0.1489E+01  0.1516E+02
   4.002  0.1494E+01  0.1517E+02
   4.012  0.1497E+01  0.1519E+02
   4.022  0.1499E+01  0.1520E+02
   4.032  0.1501E+01  0.1522E+02
   4.042  0.1503E+01  0.1523E+02
   4.052  0.1504E+01  0.1525E+02
   4.062  0.1506E+01  0.1527E+02
   4.072  0.1509E+01  0.1528E+02
   4.082  0.1513E+01  0.1530E+02
   4.092  0.1518E+01  0.1531E+02
   4.102  0.1524E+01  0.1533E+02
   4.112  0.1532E+01  0.1534E+02
   4.122  0.1540E+01  0.1536E+02
   4.132  0.1550E+01  0.1537E+02
   4.142  0.1562E+01  0.1539E+02
   4.152  0.1574E+01  0.1540E+02
   4.162  0.1587E+01  0.1542E+02
   4.172  0.1600E+01  0.1544E+02
   4.182  0.1614E+01  0.1545E+02
   4.192  0.1627E+01  0.1547E+02
   4.202  0.1641E+01  0.1548E+02
   4.212  0.1653E+01  0.1550E+02
   4.222  0.1665E+01  0.1552E+02
   4.232  0.1675E+01  0.1553E+02
   4.242  0.1683E+01  0.1555E+02
   4.252  0.1690E+01  0.1557E+02
   4.262  0.1695E+01  0.1558E+02
   4.272  0.1698E+01  0.1560E+02
   4.282  0.1698E+01  0.1562E+02
   4.292  0.1697E+01  0.1564E+02
   4.302  0.1693E+01  0.1565E+02
   4.312  0.1687E+01  0.1567E+02
   4.322  0.1680E+01  0.1569E+02
   4.332  0.1671E+01  0.1570E+02
   4.342  0.1661E+01  0.1572E+02
   4.352  0.1651E+01  0.1574E+02
   4.362  0.1640E+01  0.1575E+02
   4.372  0.1630E+01  0.1577E+02
   4.382  0.1620E+01  0.1578E+02
   4.392  0.1611E+01  0.1580E+02
   4.402  0.1604E+01  0.1582E+02
   4.412  0.1599E+01  0.1583E+02
   4.422  0.1595E+01  0.1585E+02
   4.432  0.1593E+01  0.1586E+02
   4.442  0.1594E+01  0.1588E+02
   4.452  0.1596E+01  0.1590E+02
   4.462  0.1599E+01  0.1591E+02
   4.472  0.1603E+01  0.1593E+02
   4.482  0.1608E+01  0.1594E+02
   4.492  0.1614E+01  0.1596E+02
   4.502  0.1619E+01  0.1598E+02
   4.512  0.1623E+01  0.1599E+02
   4.522  0.1626E+01  0.1601E+02
   4.532  0.1628E+01  0.1603E+02
   4.542  0.1628E+01  0.1604E+02
   4.552  0.1625E+01  0.1606E+02
   4.562  0.1622E+01  0.1607E+02
   4.572  0.1616E+01  0.1609E+02
   4.582  0.1608E+01  0.1611E+02
   4.592  0.1599E+01  0.1612E+02
   4.602  0.1589E+01  0.1614E+02
   4.612  0.1577E+01  0.1615E+02
   4.622  0.1565E+01  0.1617E+02
   4.632  0.1553E+01  0.1619E+02
   4.642  0.1541E+01  0.1620E+02
   4.652  0.1530E+01  0.1622E+02
   4.662  0.1519E+01  0.1623E+02
   4.672  0.1509E+01  0.1625E+02
   4.682  0.1500E+01  0.1626E+02
   4.692  0.1493E+01  0.1628E+02
   4.702  0.1487E+01  0.1629E+02
   4.712  0.1482E+01  0.1631E+02
   4.722  0.1478E+01  0.1632E+02
   4.732  0.1476E+01  0.1634E+02
   4.742  0.1474E+01  0.1635E+02
   4.752  0.1474E+01  0.1637E+02
   4.762  0.1476E+01  0.1638E+02
   4.772  0.1478E+01  0.1639E+02
   4.782  0.1481E+01  0.1641E+02
   4.792  0.1485E+01  0.1642E+02
   4.802  0.1489E+01  0.1644E+02
   4.812  0.1494E+01  0.1645E+02
   4.822  0.1499E+01  0.1647E+02
   4.832  0.1505E+01  0.1648E+02
   4.842  0.1510E+01  0.1650E+02
   4.852  0.1515E+01  0.1651E+02
   4.862  0.1520E+01  0.1653E+02
   4.872  0.1524E+01  0.1655E+02
   4.882  0.1527E+01  0.1656E+02
   4.892  0.1529E+01  0.1658E+02
   4.902  0.1529E+01  0.1659E+02
   4.912  0.1529E+01  0.1661E+02
   4.922  0.1527E+01  0.1662E+02
   4.932  0.1524E+01  0.1664E+02
   4.942  0.1519E+01  0.1665E+02
   4.952  0.1513E+01  0.1667E+02
   4.962  0.1506E+01  0.1668E+02
   4.972  0.1498E+01  0.1670E+02
   4.982  0.1490E+01  0.1671E+02
   4.992  0.1481E+01  0.1673E+02
   5.002  0.1471E+01  0.1674E+02
   5.012  0.1461E+01  0.1676E+02
   5.022  0.1452E+01  0.1677E+02
   5.032  0.1442E+01  0.1679E+02
   5.042  0.1433E+01  0.1680E+02
   5.052  0.1424E+01  0.1681E+02
   5.062  0.1415E+01  0.1683E+02
   5.072  0.1408E+01  0.1684E+02
   5.082  0.1401E+01  0.1686E+02
   5.092  0.1394E+01  0.1687E+02
   5.102  0.1389E+01  0.1688E+02
   5.112  0.1384E+01  0.1690E+02
   5.122  0.1380E+01  0.1691E+02
   5.132  0.1377E+01  0.1693E+02
   5.142  0.1374E+01  0.1694E+02
   5.152  0.1373E+01  0.1695E+02
   5.162  0.1373E+01  0.1697E+02
   5.172  0.1374E+01  0.1698E+02
   5.182  0.1376E+01  0.1699E+02
   5.192  0.1378E+01  0.1701E+02
   5.202  0.1382E+01  0.1702E+02
   5.212  0.1386E+01  0.1704E+02
   5.222  0.1391E+01  0.1705E+02
   5.232  0.1397E+01  0.1706E+02
   5.242  0.1402E+01  0.1708E+02
   5.252  0.1408E+01  0.1709E+02
   5.262  0.1413E+01  0.1711E+02
   5.272  0.1418E+01  0.1712E+02
   5.282  0.1421E+01  0.1713E+02
   5.292  0.1424E+01  0.1715E+02
   5.302  0.1425E+01  0.1716E+02
   5.312  0.1425E+01  0.1718E+02
   5.322  0.1424E+01  0.1719E+02
   5.332  0.1420E+01  0.1720E+02
   5.342  0.1416E+01  0.1722E+02
   5.352  0.1409E+01  0.1723E+02
   5.362  0.1401E+01  0.1725E+02
   5.372  0.1391E+01  0.1726E+02
   5.382  0.1380E+01  0.1727E+02
   5.392  0.1368E+01  0.1729E+02
   5.402  0.1355E+01  0.1730E+02
   5.412  0.1341E+01  0.1732E+02
   5.422  0.1326E+01  0.1733E+02
   5.432  0.1310E+01  0.1734E+02
   5.442  0.1294E+01  0.1735E+02
   5.452  0.1277E+01  0.1737E+02
   5.462  0.1261E+01  0.1738E+02
   5.472  0.1243E+01  0.1739E+02
   5.482  0.1226E+01  0.1740E+02
   5.492  0.1209E+01  0.1742E+02
   5.502  0.1191E+01  0.1743E+02
   5.512  0.1173E+01  0.1744E+02
   5.522  0.1155E+01  0.1745E+02
   5.532  0.1137E+01  0.1746E+02
   5.542  0.1119E+01  0.1747E+02
   5.552  0.1101E+01  0.1749E+02
   5.562  0.1082E+01  0.1750E+02
   5.572  0.1064E+01  0.1751E+02
   5.582  0.1046E+01  0.1752E+02
   5.592  0.1028E+01  0.1753E+02
   5.602  0.1011E+01  0.1754E+02
   5.612  0.9934E+00  0.1755E+02
   5.622  0.9765E+00  0.1756E+02
   5.632  0.9599E+00  0.1757E+02
   5.642  0.9437E+00  0.1758E+02
   5.652  0.9280E+00  0.1759E+02
   5.662  0.9127E+00  0.1760E+02
   5.672  0.8978E+00  0.1760E+02
   5.682  0.8834E+00  0.1761E+02
   5.692  0.8692E+00  0.1762E+02
   5.702  0.8554E+00  0.1763E+02
   5.712  0.8418E+00  0.1764E+02
   5.722  0.8284E+00  0.1765E+02
   5.732  0.8151E+00  0.1766E+02
   5.742  0.8020E+00  0.1766E+02
   5.752  0.7889E+00  0.1767E+02
   5.762  0.7758E+00  0.1768E+02
   5.772  0.7628E+00  0.1769E+02
   5.782  0.7497E+00  0.1769E+02
   5.792  0.7367E+00  0.1770E+02
   5.802  0.7236E+00  0.1771E+02
   5.812  0.7106E+00  0.1772E+02
   5.822  0.6977E+00  0.1772E+02
   5.832  0.6849E+00  0.1773E+02
   5.842  0.6722E+00  0.1774E+02
   5.852  0.6598E+00  0.1774E+02
   5.862  0.6475E+00  0.1775E+02
   5.872  0.6355E+00  0.1776E+02
   5.882  0.6238E+00  0.1776E+02
   5.892  0.6124E+00  0.1777E+02
   5.902  0.6014E+00  0.1777E+02
   5.912  0.5906E+00  0.1778E+02
   5.922  0.5803E+00  0.1779E+02
   5.932  0.5702E+00  0.1779E+02
   5.942  0.5604E+00  0.1780E+02
   5.952  0.5510E+00  0.1780E+02
   5.962  0.5418E+00  0.1781E+02
   5.972  0.5329E+00  0.1781E+02
   5.982  0.5242E+00  0.1782E+02
   5.992  0.5158E+00  0.1782E+02
   6.002  0.5075E+00  0.1783E+02
   6.012  0.4995E+00  0.1783E+02
   6.022  0.4915E+00  0.1784E+02
   6.032  0.4837E+00  0.1784E+02
   6.042  0.4760E+00  0.1785E+02
   6.052  0.4684E+00  0.1785E+02
   6.062  0.4609E+00  0.1786E+02
   6.072  0.4534E+00  0.1786E+02
   6.082  0.4459E+00  0.1787E+02
   6.092  0.4384E+00  0.1787E+02
   6.102  0.4309E+00  0.1788E+02
   6.112  0.4234E+00  0.1788E+02
   6.122  0.4159E+00  0.1788E+02
   6.132  0.4084E+00  0.1789E+02
   6.142  0.4009E+00  0.1789E+02
   6.152  0.3934E+00  0.1790E+02
   6.162  0.3859E+00  0.1790E+02
   6.172  0.3786E+00  0.1790E+02
   6.182  0.3713E+00  0.1791E+02
   6.192  0.3641E+00  0.1791E+02
   6.202  0.3571E+00  0.1791E+02
   6.212  0.3503E+00  0.1792E+02
   6.222  0.3436E+00  0.1792E+02
   6.232  0.3371E+00  0.1792E+02
   6.242  0.3307E+00  0.1793E+02
   6.252  0.3244E+00  0.1793E+02
   6.262  0.3182E+00  0.1793E+02
   6.272  0.3120E+00  0.1794E+02
   6.282  0.3057E+00  0.1794E+02
   6.292  0.2994E+00  0.1794E+02
   6.302  0.2929E+00  0.1795E+02
   6.312  0.2863E+00  0.1795E+02
   6.322  0.2794E+00  0.1795E+02
   6.332  0.2722E+00  0.1795E+02
   6.342  0.2648E+00  0.1796E+02
   6.352  0.2571E+00  0.1796E+02
   6.362  0.2491E+00  0.1796E+02
   6.372  0.2408E+00  0.1796E+02
   6.382  0.2323E+00  0.1797E+02
   6.392  0.2236E+00  0.1797E+02
   6.402  0.2147E+00  0.1797E+02
   6.412  0.2058E+00  0.1797E+02
   6.422  0.1967E+00  0.1798E+02
   6.432  0.1877E+00  0.1798E+02
   6.442  0.1787E+00  0.1798E+02
   6.452  0.1697E+00  0.1798E+02
   6.462  0.1609E+00  0.1798E+02
   6.472  0.1521E+00  0.1798E+02
   6.482  0.1435E+00  0.1799E+02
   6.492  0.1350E+00  0.1799E+02
   6.502  0.1267E+00  0.1799E+02
   6.512  0.1186E+00  0.1799E+02
   6.522  0.1106E+00  0.1799E+02
   6.532  0.1028E+00  0.1799E+02
   6.542  0.9520E-01  0.1799E+02
   6.552  0.8782E-01  0.1799E+02
   6.562  0.8067E-01  0.1799E+02
   6.572  0.7376E-01  0.1799E+02
   6.582  0.6712E-01  0.1800E+02
   6.592  0.6077E-01  0.1800E+02
   6.602  0.5472E-01  0.1800E+02
   6.612  0.4900E-01  0.1800E+02
   6.622  0.4363E-01  0.1800E+02
   6.632  0.3861E-01  0.1800E+02
   6.642  0.3396E-01  0.1800E+02
   6.652  0.2969E-01  0.1800E+02
   6.662  0.2579E-01  0.1800E+02
   6.672  0.2226E-01  0.1800E+02
   6.682  0.1910E-01  0.1800E+02
   6.692  0.1629E-01  0.1800E+02
   6.702  0.1381E-01  0.1800E+02
   6.712  0.1164E-01  0.1800E+02
   6.722  0.9759E-02  0.1800E+02
   6.732  0.8141E-02  0.1800E+02
   6.742  0.6759E-02  0.1800E+02
   6.752  0.5589E-02  0.1800E+02
   6.762  0.4603E-02  0.1800E+02
   6.772  0.3780E-02  0.1800E+02
   6.782  0.3095E-02  0.1800E+02
   6.792  0.2528E-02  0.1800E+02
   6.802  0.2061E-02  0.1800E+02
   6.812  0.1677E-02  0.1800E+02
   6.822  0.1363E-02  0.1800E+02
   6.832  0.1106E-02  0.1800E+02
   6.842  0.8960E-03  0.1800E+02
   6.852  0.7245E-03  0.1800E+02
   6.862  0.5846E-03  0.1800E+02
   6.872  0.4705E-03  0.1800E+02
   6.882  0.3775E-03  0.1800E+02
   6.892  0.3017E-03  0.1800E+02
   6.902  0.2401E-03  0.1800E+02
   6.912  0.1903E-03  0.1800E+02
   6.922  0.1501E-03  0.1800E+02
   6.932  0.1179E-03  0.1800E+02
   6.942  0.9233E-04  0.1800E+02
   6.952  0.7238E-04  0.1800E+02
   6.962  0.5718E-04  0.1800E+02
   6.972  0.4610E-04  0.1800E+02
   6.982  0.3869E-04  0.1800E+02
   6.992  0.3473E-04  0.1800E+02
   7.002  0.3419E-04  0.1800E+02
   7.012  0.3725E-04  0.1800E+02
   7.022  0.4437E-04  0.1800E+02
   7.032  0.5623E-04  0.1800E+02
   7.042  0.7385E-04  0.1800E+02
   7.052  0.9858E-04  0.1800E+02
   7.062  0.1321E-03  0.1800E+02
   7.072  0.1766E-03  0.1800E+02
   7.082  0.2345E-03  0.1800E+02
   7.092  0.3090E-03  0.1800E+02
   7.102  0.4032E-03  0.1800E+02
   7.112  0.5213E-03  0.1800E+02
   7.122  0.6673E-03  0.1800E+02
   7.132  0.8458E-03  0.1800E+02
   7.142  0.1062E-02  0.1800E+02
   7.152  0.1320E-02  0.1800E+02
   7.162  0.1625E-02  0.1800E+02
   7.172  0.1982E-02  0.1800E+02
   7.182  0.2395E-02  0.1800E+02
   7.192  0.2867E-02  0.1800E+02
   7.202  0.3403E-02  0.1800E+02
   7.212  0.4004E-02  0.1800E+02
   7.222  0.4672E-02  0.1800E+02
   7.232  0.5407E-02  0.1800E+02
   7.242  0.6208E-02  0.1800E+02
   7.252  0.7076E-02  0.1800E+02
   7.262  0.8006E-02  0.1800E+02
   7.272  0.8997E-02  0.1800E+02
   7.282  0.1004E-01  0.1800E+02
   7.292  0.1115E-01  0.1800E+02
   7.302  0.1230E-01  0.1800E+02
   7.312  0.1349E-01  0.1800E+02
   7.322  0.1472E-01  0.1800E+02
   7.332  0.1599E-01  0.1800E+02
   7.342  0.1729E-01  0.1800E+02
   7.352  0.1862E-01  0.1800E+02
   7.362  0.1996E-01  0.1800E+02
   7.372  0.2131E-01  0.1800E+02
   7.382  0.2267E-01  0.1800E+02
   7.392  0.2404E-01  0.1800E+02
   7.402  0.2539E-01  0.1800E+02
   7.412  0.2674E-01  0.1800E+02
   7.422  0.2807E-01  0.1800E+02
   7.432  0.2939E-01  0.1800E+02
   7.442  0.3070E-01  0.1800E+02
   7.452  0.3201E-01  0.1800E+02
   7.462  0.3333E-01  0.1800E+02
   7.472  0.3468E-01  0.1801E+02
   7.482  0.3610E-01  0.1801E+02
   7.492  0.3761E-01  0.1801E+02
   7.502  0.3926E-01  0.1801E+02
   7.512  0.4110E-01  0.1801E+02
   7.522  0.4320E-01  0.1801E+02
   7.532  0.4561E-01  0.1801E+02
   7.542  0.4839E-01  0.1801E+02
   7.552  0.5161E-01  0.1801E+02
   7.562  0.5532E-01  0.1801E+02
   7.572  0.5957E-01  0.1801E+02
   7.582  0.6440E-01  0.1801E+02
   7.592  0.6983E-01  0.1801E+02
   7.602  0.7586E-01  0.1801E+02
   7.612  0.8247E-01  0.1801E+02
   7.622  0.8961E-01  0.1801E+02
   7.632  0.9722E-01  0.1801E+02
   7.642  0.1052E+00  0.1802E+02
   7.652  0.1135E+00  0.1802E+02
   7.662  0.1219E+00  0.1802E+02
   7.672  0.1304E+00  0.1802E+02
   7.682  0.1387E+00  0.1802E+02
   7.692  0.1467E+00  0.1802E+02
   7.702  0.1544E+00  0.1802E+02
   7.712  0.1615E+00  0.1803E+02
   7.722  0.1679E+00  0.1803E+02
   7.732  0.1737E+00  0.1803E+02
   7.742  0.1786E+00  0.1803E+02
   7.752  0.1828E+00  0.1803E+02
   7.762  0.1861E+00  0.1803E+02
   7.772  0.1886E+00  0.1804E+02
   7.782  0.1904E+00  0.1804E+02
   7.792  0.1915E+00  0.1804E+02
   7.802  0.1920E+00  0.1804E+02
   7.812  0.1920E+00  0.1804E+02
   7.822  0.1917E+00  0.1805E+02
   7.832  0.1912E+00  0.1805E+02
   7.842  0.1905E+00  0.1805E+02
   7.852  0.1899E+00  0.1805E+02
   7.862  0.1895E+00  0.1805E+02
   7.872  0.1893E+00  0.1806E+02
   7.882  0.1895E+00  0.1806E+02
   7.892  0.1902E+00  0.1806E+02
   7.902  0.1914E+00  0.1806E+02
   7.912  0.1933E+00  0.1806E+02
   7.922  0.1960E+00  0.1806E+02
   7.932  0.1996E+00  0.1807E+02
   7.942  0.2041E+00  0.1807E+02
   7.952  0.2096E+00  0.1807E+02
   7.962  0.2161E+00  0.1807E+02
   7.972  0.2239E+00  0.1808E+02
   7.982  0.2328E+00  0.1808E+02
   7.992  0.2429E+00  0.1808E+02
   8.002  0.2543E+00  0.1808E+02
   8.012  0.2670E+00  0.1809E+02
   8.022  0.2809E+00  0.1809E+02
   8.032  0.2961E+00  0.1809E+02
   8.042  0.3124E+00  0.1809E+02
   8.052  0.3298E+00  0.1810E+02
   8.062  0.3482E+00  0.1810E+02
   8.072  0.3676E+00  0.1810E+02
   8.082  0.3877E+00  0.1811E+02
   8.092  0.4083E+00  0.1811E+02
   8.102  0.4295E+00  0.1812E+02
   8.112  0.4509E+00  0.1812E+02
   8.122  0.4723E+00  0.1813E+02
   8.132  0.4937E+00  0.1813E+02
   8.142  0.5148E+00  0.1814E+02
   8.152  0.5354E+00  0.1814E+02
   8.162  0.5554E+00  0.1815E+02
   8.172  0.5746E+00  0.1815E+02
   8.182  0.5928E+00  0.1816E+02
   8.192  0.6099E+00  0.1816E+02
   8.202  0.6258E+00  0.1817E+02
   8.212  0.6405E+00  0.1818E+02
   8.222  0.6539E+00  0.1818E+02
   8.232  0.6660E+00  0.1819E+02
   8.242  0.6768E+00  0.1820E+02
   8.252  0.6864E+00  0.1820E+02
   8.262  0.6949E+00  0.1821E+02
   8.272  0.7024E+00  0.1822E+02
   8.282  0.7090E+00  0.1823E+02
   8.292  0.7149E+00  0.1823E+02
   8.302  0.7204E+00  0.1824E+02
   8.312  0.7257E+00  0.1825E+02
   8.322  0.7309E+00  0.1825E+02
   8.332  0.7364E+00  0.1826E+02
   8.342  0.7423E+00  0.1827E+02
   8.352  0.7489E+00  0.1828E+02
   8.362  0.7563E+00  0.1828E+02
   8.372  0.7648E+00  0.1829E+02
   8.382  0.7744E+00  0.1830E+02
   8.392  0.7853E+00  0.1831E+02
   8.402  0.7976E+00  0.1832E+02
   8.412  0.8113E+00  0.1832E+02
   8.422  0.8264E+00  0.1833E+02
   8.432  0.8429E+00  0.1834E+02
   8.442  0.8607E+00  0.1835E+02
   8.452  0.8797E+00  0.1836E+02
   8.462  0.8999E+00  0.1837E+02
   8.472  0.9209E+00  0.1838E+02
   8.482  0.9428E+00  0.1839E+02
   8.492  0.9652E+00  0.1839E+02
   8.502  0.9879E+00  0.1840E+02
   8.512  0.1011E+01  0.1841E+02
   8.522  0.1034E+01  0.1843E+02
   8.532  0.1056E+01  0.1844E+02
   8.542  0.1078E+01  0.1845E+02
   8.552  0.1099E+01  0.1846E+02
   8.562  0.1120E+01  0.1847E+02
   8.572  0.1140E+01  0.1848E+02
   8.582  0.1158E+01  0.1849E+02
   8.592  0.1176E+01  0.1850E+02
   8.602  0.1193E+01  0.1852E+02
   8.612  0.1208E+01  0.1853E+02
   8.622  0.1223E+01  0.1854E+02
   8.632  0.1238E+01  0.1855E+02
   8.642  0.1251E+01  0.1856E+02
   8.652  0.1265E+01  0.1858E+02
   8.662  0.1278E+01  0.1859E+02
   8.672  0.1292E+01  0.1860E+02
   8.682  0.1306E+01  0.1862E+02
   8.692  0.1321E+01  0.1863E+02
   8.702  0.1337E+01  0.1864E+02
   8.712  0.1353E+01  0.1866E+02
   8.722  0.1371E+01  0.1867E+02
   8.732  0.1391E+01  0.1868E+02
   8.742  0.1412E+01  0.1870E+02
   8.752  0.1435E+01  0.1871E+02
   8.762  0.1459E+01  0.1873E+02
   8.772  0.1485E+01  0.1874E+02
   8.782  0.1512E+01  0.1876E+02
   8.792  0.1541E+01  0.1877E+02
   8.802  0.1571E+01  0.1879E+02
   8.812  0.1602E+01  0.1880E+02
   8.822  0.1634E+01  0.1882E+02
   8.832  0.1666E+01  0.1884E+02
   8.842  0.1699E+01  0.1885E+02
   8.852  0.1731E+01  0.1887E+02
   8.862  0.1763E+01  0.1889E+02
   8.872  0.1795E+01  0.1891E+02
   8.882  0.1825E+01  0.1893E+02
   8.892  0.1854E+01  0.1894E+02
   8.902  0.1881E+01  0.1896E+02
   8.912  0.1905E+01  0.1898E+02
   8.922  0.1927E+01  0.1900E+02
   8.932  0.1947E+01  0.1902E+02
   8.942  0.1963E+01  0.1904E+02
   8.952  0.1976E+01  0.1906E+02
   8.962  0.1985E+01  0.1908E+02
   8.972  0.1991E+01  0.1910E+02
   8.982  0.1992E+01  0.1912E+02
   8.992  0.1990E+01  0.1914E+02
   9.002  0.1983E+01  0.1916E+02
   9.012  0.1972E+01  0.1918E+02
   9.022  0.1957E+01  0.1920E+02
   9.032  0.1938E+01  0.1922E+02
   9.042  0.1915E+01  0.1924E+02
   9.052  0.1889E+01  0.1926E+02
   9.062  0.1859E+01  0.1927E+02
   9.072  0.1827E+01  0.1929E+02
   9.082  0.1792E+01  0.1931E+02
   9.092  0.1755E+01  0.1933E+02
   9.102  0.1717E+01  0.1935E+02
   9.112  0.1677E+01  0.1936E+02
   9.122  0.1637E+01  0.1938E+02
   9.132  0.1597E+01  0.1939E+02
   9.142  0.1557E+01  0.1941E+02
   9.152  0.1518E+01  0.1943E+02
   9.162  0.1481E+01  0.1944E+02
   9.172  0.1445E+01  0.1945E+02
   9.182  0.1411E+01  0.1947E+02
   9.192  0.1379E+01  0.1948E+02
   9.202  0.1350E+01  0.1950E+02
   9.212  0.1324E+01  0.1951E+02
   9.222  0.1300E+01  0.1952E+02
   9.232  0.1278E+01  0.1953E+02
   9.242  0.1258E+01  0.1955E+02
   9.252  0.1241E+01  0.1956E+02
   9.262  0.1226E+01  0.1957E+02
   9.272  0.1211E+01  0.1958E+02
   9.282  0.1198E+01  0.1960E+02
   9.292  0.1186E+01  0.1961E+02
   9.302  0.1174E+01  0.1962E+02
   9.312  0.1162E+01  0.1963E+02
   9.322  0.1150E+01  0.1964E+02
   9.332  0.1138E+01  0.1965E+02
   9.342  0.1125E+01  0.1967E+02
   9.352  0.1111E+01  0.1968E+02
   9.362  0.1097E+01  0.1969E+02
   9.372  0.1082E+01  0.1970E+02
   9.382  0.1066E+01  0.1971E+02
   9.392  0.1051E+01  0.1972E+02
   9.402  0.1035E+01  0.1973E+02
   9.412  0.1020E+01  0.1974E+02
   9.422  0.1005E+01  0.1975E+02
   9.432  0.9912E+00  0.1976E+02
   9.442  0.9786E+00  0.1977E+02
   9.452  0.9673E+00  0.1978E+02
   9.462  0.9575E+00  0.1979E+02
   9.472  0.9494E+00  0.1980E+02
   9.482  0.9428E+00  0.1981E+02
   9.492  0.9379E+00  0.1982E+02
   9.502  0.9345E+00  0.1983E+02
   9.512  0.9323E+00  0.1984E+02
   9.522  0.9314E+00  0.1985E+02
   9.532  0.9313E+00  0.1985E+02
   9.542  0.9321E+00  0.1986E+02
   9.552  0.9334E+00  0.1987E+02
   9.562  0.9351E+00  0.1988E+02
   9.572  0.9372E+00  0.1989E+02
   9.582  0.9395E+00  0.1990E+02
   9.592  0.9420E+00  0.1991E+02
   9.602  0.9449E+00  0.1992E+02
   9.612  0.9481E+00  0.1993E+02
   9.622  0.9518E+00  0.1994E+02
   9.632  0.9562E+00  0.1995E+02
   9.642  0.9613E+00  0.1996E+02
   9.652  0.9674E+00  0.1997E+02
   9.662  0.9745E+00  0.1998E+02
   9.672  0.9826E+00  0.1999E+02
   9.682  0.9919E+00  0.2000E+02
   9.692  0.1002E+01  0.2001E+02
   9.702  0.1013E+01  0.2002E+02
   9.712  0.1025E+01  0.2003E+02
   9.722  0.1037E+01  0.2004E+02
   9.732  0.1049E+01  0.2005E+02
   9.742  0.1061E+01  0.2006E+02
   9.752  0.1072E+01  0.2007E+02
   9.762  0.1082E+01  0.2008E+02
   9.772  0.1089E+01  0.2009E+02
   9.782  0.1095E+01  0.2010E+02
   9.792  0.1098E+01  0.2011E+02
   9.802  0.1097E+01  0.2012E+02
   9.812  0.1094E+01  0.2014E+02
   9.822  0.1087E+01  0.2015E+02
   9.832  0.1077E+01  0.2016E+02
   9.842  0.1063E+01  0.2017E+02
   9.852  0.1046E+01  0.2018E+02
   9.862  0.1026E+01  0.2019E+02
   9.872  0.1004E+01  0.2020E+02
   9.882  0.9805E+00  0.2021E+02
   9.892  0.9555E+00  0.2022E+02
   9.902  0.9300E+00  0.2023E+02
   9.912  0.9047E+00  0.2024E+02
   9.922  0.8802E+00  0.2025E+02
   9.932  0.8571E+00  0.2025E+02
   9.942  0.8360E+00  0.2026E+02
   9.952  0.8174E+00  0.2027E+02
   9.962  0.8014E+00  0.2028E+02
   9.972  0.7885E+00  0.2029E+02
   9.982  0.7785E+00  0.2029E+02
   9.992  0.7714E+00  0.2030E+02
  10.002  0.7669E+00  0.2031E+02
  10.012  0.7648E+00  0.2032E+02
  10.022  0.7644E+00  0.2032E+02
  10.032  0.7654E+00  0.2033E+02
  10.042  0.7671E+00  0.2034E+02
  10.052  0.7688E+00  0.2035E+02
  10.062  0.7700E+00  0.2036E+02
  10.072  0.7700E+00  0.2036E+02
  10.082  0.7685E+00  0.2037E+02
  10.092  0.7651E+00  0.2038E+02
  10.102  0.7593E+00  0.2039E+02
  10.112  0.7513E+00  0.2039E+02
  10.122  0.7409E+00  0.2040E+02
  10.132  0.7283E+00  0.2041E+02
  10.142  0.7139E+00  0.2042E+02
  10.152  0.6981E+00  0.2042E+02
  10.162  0.6814E+00  0.2043E+02
  10.172  0.6645E+00  0.2044E+02
  10.182  0.6480E+00  0.2044E+02
  10.192  0.6326E+00  0.2045E+02
  10.202  0.6190E+00  0.2046E+02
  10.212  0.6078E+00  0.2046E+02
  10.222  0.5997E+00  0.2047E+02
  10.232  0.5951E+00  0.2047E+02
  10.242  0.5945E+00  0.2048E+02
  10.252  0.5980E+00  0.2048E+02
  10.262  0.6060E+00  0.2049E+02
  10.272  0.6184E+00  0.2050E+02
  10.282  0.6352E+00  0.2050E+02
  10.292  0.6562E+00  0.2051E+02
  10.302  0.6811E+00  0.2052E+02
  10.312  0.7096E+00  0.2052E+02
  10.322  0.7413E+00  0.2053E+02
  10.332  0.7755E+00  0.2054E+02
  10.342  0.8118E+00  0.2055E+02
  10.352  0.8495E+00  0.2056E+02
  10.362  0.8880E+00  0.2056E+02
  10.372  0.9267E+00  0.2057E+02
  10.382  0.9649E+00  0.2058E+02
  10.392  0.1002E+01  0.2059E+02
  10.402  0.1037E+01  0.2060E+02
  10.412  0.1070E+01  0.2061E+02
  10.422  0.1100E+01  0.2063E+02
  10.432  0.1126E+01  0.2064E+02
  10.442  0.1148E+01  0.2065E+02
  10.452  0.1167E+01  0.2066E+02
  10.462  0.1180E+01  0.2067E+02
  10.472  0.1189E+01  0.2068E+02
  10.482  0.1193E+01  0.2070E+02
  10.492  0.1192E+01  0.2071E+02
  10.502  0.1187E+01  0.2072E+02
  10.512  0.1178E+01  0.2073E+02
  10.522  0.1165E+01  0.2074E+02
  10.532  0.1149E+01  0.2075E+02
  10.542  0.1131E+01  0.2077E+02
  10.552  0.1111E+01  0.2078E+02
  10.562  0.1091E+01  0.2079E+02
  10.572  0.1071E+01  0.2080E+02
  10.582  0.1051E+01  0.2081E+02
  10.592  0.1034E+01  0.2082E+02
  10.602  0.1019E+01  0.2083E+02
  10.612  0.1007E+01  0.2084E+02
  10.622  0.9984E+00  0.2085E+02
  10.632  0.9940E+00  0.2086E+02
  10.642  0.9940E+00  0.2087E+02
  10.652  0.9985E+00  0.2088E+02
  10.662  0.1008E+01  0.2089E+02
  10.672  0.1021E+01  0.2090E+02
  10.682  0.1039E+01  0.2091E+02
  10.692  0.1061E+01  0.2092E+02
  10.702  0.1087E+01  0.2093E+02
  10.712  0.1116E+01  0.2094E+02
  10.722  0.1149E+01  0.2095E+02
  10.732  0.1183E+01  0.2097E+02
  10.742  0.1220E+01  0.2098E+02
  10.752  0.1257E+01  0.2099E+02
  10.762  0.1296E+01  0.2100E+02
  10.772  0.1335E+01  0.2102E+02
  10.782  0.1374E+01  0.2103E+02
  10.792  0.1413E+01  0.2105E+02
  10.802  0.1450E+01  0.2106E+02
  10.812  0.1487E+01  0.2107E+02
  10.822  0.1521E+01  0.2109E+02
  10.832  0.1554E+01  0.2111E+02
  10.842  0.1585E+01  0.2112E+02
  10.852  0.1614E+01  0.2114E+02
  10.862  0.1640E+01  0.2115E+02
  10.872  0.1665E+01  0.2117E+02
  10.882  0.1687E+01  0.2119E+02
  10.892  0.1708E+01  0.2120E+02
  10.902  0.1727E+01  0.2122E+02
  10.912  0.1744E+01  0.2124E+02
  10.922  0.1760E+01  0.2126E+02
  10.932  0.1774E+01  0.2127E+02
  10.942  0.1788E+01  0.2129E+02
  10.952  0.1800E+01  0.2131E+02
  10.962  0.1812E+01  0.2133E+02
  10.972  0.1823E+01  0.2135E+02
  10.982  0.1833E+01  0.2136E+02
  10.992  0.1843E+01  0.2138E+02
  11.002  0.1851E+01  0.2140E+02
  11.012  0.1859E+01  0.2142E+02
  11.022  0.1867E+01  0.2144E+02
  11.032  0.1874E+01  0.2146E+02
  11.042  0.1879E+01  0.2148E+02
  11.052  0.1884E+01  0.2150E+02
  11.062  0.1888E+01  0.2151E+02
  11.072  0.1890E+01  0.2153E+02
  11.082  0.1891E+01  0.2155E+02
  11.092  0.1890E+01  0.2157E+02
  11.102  0.1888E+01  0.2159E+02
  11.112  0.1884E+01  0.2161E+02
  11.122  0.1877E+01  0.2163E+02
  11.132  0.1868E+01  0.2165E+02
  11.142  0.1856E+01  0.2166E+02
  11.152  0.1842E+01  0.2168E+02
  11.162  0.1824E+01  0.2170E+02
  11.172  0.1803E+01  0.2172E+02
  11.182  0.1780E+01  0.2174E+02
  11.192  0.1753E+01  0.2175E+02
  11.202  0.1723E+01  0.2177E+02
  11.212  0.1690E+01  0.2179E+02
  11.222  0.1655E+01  0.2181E+02
  11.232  0.1618E+01  0.2182E+02
  11.242  0.1579E+01  0.2184E+02
  11.252  0.1539E+01  0.2185E+02
  11.262  0.1498E+01  0.2187E+02
  11.272  0.1456E+01  0.2188E+02
  11.282  0.1416E+01  0.2190E+02
  11.292  0.1376E+01  0.2191E+02
  11.302  0.1338E+01  0.2192E+02
  11.312  0.1302E+01  0.2194E+02
  11.322  0.1268E+01  0.2195E+02
  11.332  0.1237E+01  0.2196E+02
  11.342  0.1209E+01  0.2197E+02
  11.352  0.1185E+01  0.2199E+02
  11.362  0.1163E+01  0.2200E+02
  11.372  0.1145E+01  0.2201E+02
  11.382  0.1129E+01  0.2202E+02
  11.392  0.1117E+01  0.2203E+02
  11.402  0.1107E+01  0.2204E+02
  11.412  0.1098E+01  0.2205E+02
  11.422  0.1092E+01  0.2206E+02
  11.432  0.1086E+01  0.2207E+02
  11.442  0.1081E+01  0.2209E+02
  11.452  0.1077E+01  0.2210E+02
  11.462  0.1073E+01  0.2211E+02
  11.472  0.1069E+01  0.2212E+02
  11.482  0.1064E+01  0.2213E+02
  11.492  0.1059E+01  0.2214E+02
  11.502  0.1055E+01  0.2215E+02
  11.512  0.1050E+01  0.2216E+02
  11.522  0.1044E+01  0.2217E+02
  11.532  0.1040E+01  0.2218E+02
  11.542  0.1035E+01  0.2219E+02
  11.552  0.1031E+01  0.2220E+02
  11.562  0.1028E+01  0.2221E+02
  11.572  0.1026E+01  0.2222E+02
  11.582  0.1026E+01  0.2223E+02
  11.592  0.1027E+01  0.2224E+02
  11.602  0.1030E+01  0.2225E+02
  11.612  0.1035E+01  0.2226E+02
  11.622  0.1043E+01  0.2227E+02
  11.632  0.1052E+01  0.2228E+02
  11.642  0.1064E+01  0.2229E+02
  11.652  0.1079E+01  0.2231E+02
  11.662  0.1096E+01  0.2232E+02
  11.672  0.1116E+01  0.2233E+02
  11.682  0.1138E+01  0.2234E+02
  11.692  0.1163E+01  0.2235E+02
  11.702  0.1191E+01  0.2236E+02
  11.712  0.1221E+01  0.2238E+02
  11.722  0.1254E+01  0.2239E+02
  11.732  0.1288E+01  0.2240E+02
  11.742  0.1324E+01  0.2241E+02
  11.752  0.1362E+01  0.2243E+02
  11.762  0.1401E+01  0.2244E+02
  11.772  0.1440E+01  0.2246E+02
  11.782  0.1479E+01  0.2247E+02
  11.792  0.1518E+01  0.2249E+02
  11.802  0.1555E+01  0.2250E+02
  11.812  0.1592E+01  0.2252E+02
  11.822  0.1626E+01  0.2253E+02
  11.832  0.1658E+01  0.2255E+02
  11.842  0.1687E+01  0.2257E+02
  11.852  0.1714E+01  0.2258E+02
  11.862  0.1737E+01  0.2260E+02
  11.872  0.1758E+01  0.2262E+02
  11.882  0.1775E+01  0.2264E+02
  11.892  0.1790E+01  0.2265E+02
  11.902  0.1801E+01  0.2267E+02
  11.912  0.1810E+01  0.2269E+02
  11.922  0.1817E+01  0.2271E+02
  11.932  0.1822E+01  0.2273E+02
  11.942  0.1824E+01  0.2275E+02
  11.952  0.1826E+01  0.2276E+02
  11.962  0.1825E+01  0.2278E+02
  11.972  0.1824E+01  0.2280E+02
  11.982  0.1822E+01  0.2282E+02
  11.992  0.1818E+01  0.2284E+02
  12.002  0.1813E+01  0.2285E+02
  12.012  0.1808E+01  0.2287E+02
  12.022  0.1801E+01  0.2289E+02
  12.032  0.1793E+01  0.2291E+02
  12.042  0.1783E+01  0.2293E+02
  12.052  0.1773E+01  0.2294E+02
  12.062  0.1761E+01  0.2296E+02
  12.072  0.1748E+01  0.2298E+02
  12.082  0.1734E+01  0.2300E+02
  12.092  0.1719E+01  0.2301E+02
  12.102  0.1704E+01  0.2303E+02
  12.112  0.1688E+01  0.2305E+02
  12.122  0.1672E+01  0.2306E+02
  12.132  0.1657E+01  0.2308E+02
  12.142  0.1642E+01  0.2310E+02
  12.152  0.1628E+01  0.2311E+02
  12.162  0.1616E+01  0.2313E+02
  12.172  0.1606E+01  0.2315E+02
  12.182  0.1598E+01  0.2316E+02
  12.192  0.1591E+01  0.2318E+02
  12.202  0.1586E+01  0.2319E+02
  12.212  0.1583E+01  0.2321E+02
  12.222  0.1581E+01  0.2323E+02
  12.232  0.1580E+01  0.2324E+02
  12.242  0.1580E+01  0.2326E+02
  12.252  0.1580E+01  0.2327E+02
  12.262  0.1580E+01  0.2329E+02
  12.272  0.1578E+01  0.2330E+02
  12.282  0.1576E+01  0.2332E+02
  12.292  0.1572E+01  0.2334E+02
  12.302  0.1567E+01  0.2335E+02
  12.312  0.1560E+01  0.2337E+02
  12.322  0.1550E+01  0.2338E+02
  12.332  0.1539E+01  0.2340E+02
  12.342  0.1526E+01  0.2341E+02
  12.352  0.1512E+01  0.2343E+02
  12.362  0.1496E+01  0.2344E+02
  12.372  0.1480E+01  0.2346E+02
  12.382  0.1462E+01  0.2347E+02
  12.392  0.1444E+01  0.2349E+02
  12.402  0.1426E+01  0.2350E+02
  12.412  0.1408E+01  0.2352E+02
  12.422  0.1389E+01  0.2353E+02
  12.432  0.1371E+01  0.2354E+02
  12.442  0.1352E+01  0.2356E+02
  12.452  0.1334E+01  0.2357E+02
  12.462  0.1316E+01  0.2358E+02
  12.472  0.1297E+01  0.2360E+02
  12.482  0.1279E+01  0.2361E+02
  12.492  0.1262E+01  0.2362E+02
  12.502  0.1244E+01  0.2363E+02
  12.512  0.1227E+01  0.2365E+02
  12.522  0.1211E+01  0.2366E+02
  12.532  0.1196E+01  0.2367E+02
  12.542  0.1183E+01  0.2368E+02
  12.552  0.1170E+01  0.2369E+02
  12.562  0.1160E+01  0.2371E+02
  12.572  0.1152E+01  0.2372E+02
  12.582  0.1146E+01  0.2373E+02
  12.592  0.1142E+01  0.2374E+02
  12.602  0.1141E+01  0.2375E+02
  12.612  0.1143E+01  0.2376E+02
  12.622  0.1147E+01  0.2377E+02
  12.632  0.1153E+01  0.2379E+02
  12.642  0.1161E+01  0.2380E+02
  12.652  0.1170E+01  0.2381E+02
  12.662  0.1181E+01  0.2382E+02
  12.672  0.1192E+01  0.2383E+02
  12.682  0.1203E+01  0.2384E+02
  12.692  0.1213E+01  0.2386E+02
  12.702  0.1222E+01  0.2387E+02
  12.712  0.1230E+01  0.2388E+02
  12.722  0.1236E+01  0.2389E+02
  12.732  0.1240E+01  0.2391E+02
  12.742  0.1240E+01  0.2392E+02
  12.752  0.1238E+01  0.2393E+02
  12.762  0.1233E+01  0.2394E+02
  12.772  0.1224E+01  0.2396E+02
  12.782  0.1213E+01  0.2397E+02
  12.792  0.1199E+01  0.2398E+02
  12.802  0.1182E+01  0.2399E+02
  12.812  0.1162E+01  0.2400E+02
  12.822  0.1141E+01  0.2401E+02
  12.832  0.1118E+01  0.2403E+02
  12.842  0.1094E+01  0.2404E+02
  12.852  0.1069E+01  0.2405E+02
  12.862  0.1043E+01  0.2406E+02
  12.872  0.1018E+01  0.2407E+02
  12.882  0.9934E+00  0.2408E+02
  12.892  0.9693E+00  0.2409E+02
  12.902  0.9461E+00  0.2410E+02
  12.912  0.9239E+00  0.2411E+02
  12.922  0.9029E+00  0.2412E+02
  12.932  0.8830E+00  0.2412E+02
  12.942  0.8644E+00  0.2413E+02
  12.952  0.8470E+00  0.2414E+02
  12.962  0.8307E+00  0.2415E+02
  12.972  0.8154E+00  0.2416E+02
  12.982  0.8012E+00  0.2417E+02
  12.992  0.7880E+00  0.2417E+02
  13.002  0.7758E+00  0.2418E+02
  13.012  0.7647E+00  0.2419E+02
  13.022  0.7548E+00  0.2420E+02
  13.032  0.7462E+00  0.2420E+02
  13.042  0.7391E+00  0.2421E+02
  13.052  0.7337E+00  0.2422E+02
  13.062  0.7303E+00  0.2423E+02
  13.072  0.7290E+00  0.2423E+02
  13.082  0.7302E+00  0.2424E+02
  13.092  0.7340E+00  0.2425E+02
  13.102  0.7406E+00  0.2426E+02
  13.112  0.7502E+00  0.2426E+02
  13.122  0.7627E+00  0.2427E+02
  13.132  0.7783E+00  0.2428E+02
  13.142  0.7968E+00  0.2429E+02
  13.152  0.8180E+00  0.2429E+02
  13.162  0.8417E+00  0.2430E+02
  13.172  0.8675E+00  0.2431E+02
  13.182  0.8951E+00  0.2432E+02
  13.192  0.9240E+00  0.2433E+02
  13.202  0.9535E+00  0.2434E+02
  13.212  0.9832E+00  0.2435E+02
  13.222  0.1012E+01  0.2436E+02
  13.232  0.1041E+01  0.2437E+02
  13.242  0.1067E+01  0.2438E+02
  13.252  0.1092E+01  0.2439E+02
  13.262  0.1113E+01  0.2440E+02
  13.272  0.1132E+01  0.2441E+02
  13.282  0.1147E+01  0.2443E+02
  13.292  0.1158E+01  0.2444E+02
  13.302  0.1164E+01  0.2445E+02
  13.312  0.1167E+01  0.2446E+02
  13.322  0.1166E+01  0.2447E+02
  13.332  0.1160E+01  0.2448E+02
  13.342  0.1150E+01  0.2449E+02
  13.352  0.1136E+01  0.2451E+02
  13.362  0.1119E+01  0.2452E+02
  13.372  0.1098E+01  0.2453E+02
  13.382  0.1075E+01  0.2454E+02
  13.392  0.1049E+01  0.2455E+02
  13.402  0.1021E+01  0.2456E+02
  13.412  0.9916E+00  0.2457E+02
  13.422  0.9614E+00  0.2458E+02
  13.432  0.9307E+00  0.2459E+02
  13.442  0.9002E+00  0.2460E+02
  13.452  0.8702E+00  0.2461E+02
  13.462  0.8414E+00  0.2461E+02
  13.472  0.8140E+00  0.2462E+02
  13.482  0.7884E+00  0.2463E+02
  13.492  0.7650E+00  0.2464E+02
  13.502  0.7439E+00  0.2465E+02
  13.512  0.7254E+00  0.2465E+02
  13.522  0.7095E+00  0.2466E+02
  13.532  0.6964E+00  0.2467E+02
  13.542  0.6860E+00  0.2467E+02
  13.552  0.6785E+00  0.2468E+02
  13.562  0.6736E+00  0.2469E+02
  13.572  0.6714E+00  0.2469E+02
  13.582  0.6719E+00  0.2470E+02
  13.592  0.6749E+00  0.2471E+02
  13.602  0.6804E+00  0.2471E+02
  13.612  0.6884E+00  0.2472E+02
  13.622  0.6988E+00  0.2473E+02
  13.632  0.7116E+00  0.2474E+02
  13.642  0.7268E+00  0.2474E+02
  13.652  0.7443E+00  0.2475E+02
  13.662  0.7641E+00  0.2476E+02
  13.672  0.7862E+00  0.2477E+02
  13.682  0.8105E+00  0.2477E+02
  13.692  0.8369E+00  0.2478E+02
  13.702  0.8654E+00  0.2479E+02
  13.712  0.8959E+00  0.2480E+02
  13.722  0.9282E+00  0.2481E+02
  13.732  0.9622E+00  0.2482E+02
  13.742  0.9977E+00  0.2483E+02
  13.752  0.1034E+01  0.2484E+02
  13.762  0.1072E+01  0.2485E+02
  13.772  0.1110E+01  0.2486E+02
  13.782  0.1148E+01  0.2487E+02
  13.792  0.1186E+01  0.2488E+02
  13.802  0.1224E+01  0.2490E+02
  13.812  0.1260E+01  0.2491E+02
  13.822  0.1295E+01  0.2492E+02
  13.832  0.1327E+01  0.2494E+02
  13.842  0.1357E+01  0.2495E+02
  13.852  0.1384E+01  0.2496E+02
  13.862  0.1407E+01  0.2498E+02
  13.872  0.1427E+01  0.2499E+02
  13.882  0.1442E+01  0.2501E+02
  13.892  0.1454E+01  0.2502E+02
  13.902  0.1461E+01  0.2503E+02
  13.912  0.1463E+01  0.2505E+02
  13.922  0.1461E+01  0.2506E+02
  13.932  0.1455E+01  0.2508E+02
  13.942  0.1445E+01  0.2509E+02
  13.952  0.1431E+01  0.2511E+02
  13.962  0.1413E+01  0.2512E+02
  13.972  0.1393E+01  0.2514E+02
  13.982  0.1370E+01  0.2515E+02
  13.992  0.1345E+01  0.2516E+02
  14.002  0.1317E+01  0.2518E+02
  14.012  0.1288E+01  0.2519E+02
  14.022  0.1258E+01  0.2520E+02
  14.032  0.1228E+01  0.2521E+02
  14.042  0.1196E+01  0.2523E+02
  14.052  0.1165E+01  0.2524E+02
  14.062  0.1133E+01  0.2525E+02
  14.072  0.1102E+01  0.2526E+02
  14.082  0.1071E+01  0.2527E+02
  14.092  0.1041E+01  0.2528E+02
  14.102  0.1011E+01  0.2529E+02
  14.112  0.9827E+00  0.2530E+02
  14.122  0.9554E+00  0.2531E+02
  14.132  0.9294E+00  0.2532E+02
  14.142  0.9049E+00  0.2533E+02
  14.152  0.8821E+00  0.2534E+02
  14.162  0.8612E+00  0.2535E+02
  14.172  0.8424E+00  0.2535E+02
  14.182  0.8258E+00  0.2536E+02
  14.192  0.8116E+00  0.2537E+02
  14.202  0.8000E+00  0.2538E+02
  14.212  0.7909E+00  0.2539E+02
  14.222  0.7846E+00  0.2539E+02
  14.232  0.7808E+00  0.2540E+02
  14.242  0.7795E+00  0.2541E+02
  14.252  0.7806E+00  0.2542E+02
  14.262  0.7838E+00  0.2543E+02
  14.272  0.7887E+00  0.2543E+02
  14.282  0.7949E+00  0.2544E+02
  14.292  0.8019E+00  0.2545E+02
  14.302  0.8092E+00  0.2546E+02
  14.312  0.8162E+00  0.2547E+02
  14.322  0.8223E+00  0.2547E+02
  14.332  0.8270E+00  0.2548E+02
  14.342  0.8297E+00  0.2549E+02
  14.352  0.8300E+00  0.2550E+02
  14.362  0.8275E+00  0.2551E+02
  14.372  0.8220E+00  0.2552E+02
  14.382  0.8132E+00  0.2552E+02
  14.392  0.8013E+00  0.2553E+02
  14.402  0.7862E+00  0.2554E+02
  14.412  0.7683E+00  0.2555E+02
  14.422  0.7478E+00  0.2555E+02
  14.432  0.7252E+00  0.2556E+02
  14.442  0.7010E+00  0.2557E+02
  14.452  0.6758E+00  0.2558E+02
  14.462  0.6500E+00  0.2558E+02
  14.472  0.6243E+00  0.2559E+02
  14.482  0.5993E+00  0.2559E+02
  14.492  0.5753E+00  0.2560E+02
  14.502  0.5530E+00  0.2561E+02
  14.512  0.5325E+00  0.2561E+02
  14.522  0.5143E+00  0.2562E+02
  14.532  0.4985E+00  0.2562E+02
  14.542  0.4852E+00  0.2563E+02
  14.552  0.4745E+00  0.2563E+02
  14.562  0.4664E+00  0.2563E+02
  14.572  0.4606E+00  0.2564E+02
  14.582  0.4572E+00  0.2564E+02
  14.592  0.4557E+00  0.2565E+02
  14.602  0.4559E+00  0.2565E+02
  14.612  0.4576E+00  0.2566E+02
  14.622  0.4604E+00  0.2566E+02
  14.632  0.4639E+00  0.2567E+02
  14.642  0.4679E+00  0.2567E+02
  14.652  0.4720E+00  0.2568E+02
  14.662  0.4759E+00  0.2568E+02
  14.672  0.4794E+00  0.2569E+02
  14.682  0.4822E+00  0.2569E+02
  14.692  0.4842E+00  0.2570E+02
  14.702  0.4853E+00  0.2570E+02
  14.712  0.4853E+00  0.2571E+02
  14.722  0.4842E+00  0.2571E+02
  14.732  0.4821E+00  0.2572E+02
  14.742  0.4788E+00  0.2572E+02
  14.752  0.4746E+00  0.2572E+02
  14.762  0.4695E+00  0.2573E+02
  14.772  0.4635E+00  0.2573E+02
  14.782  0.4568E+00  0.2574E+02
  14.792  0.4494E+00  0.2574E+02
  14.802  0.4415E+00  0.2575E+02
  14.812  0.4332E+00  0.2575E+02
  14.822  0.4245E+00  0.2576E+02
  14.832  0.4155E+00  0.2576E+02
  14.842  0.4063E+00  0.2576E+02
  14.852  0.3970E+00  0.2577E+02
  14.862  0.3874E+00  0.2577E+02
  14.872  0.3778E+00  0.2578E+02
  14.882  0.3681E+00  0.2578E+02
  14.892  0.3582E+00  0.2578E+02
  14.902  0.3483E+00  0.2579E+02
  14.912  0.3382E+00  0.2579E+02
  14.922  0.3281E+00  0.2579E+02
  14.932  0.3180E+00  0.2580E+02
  14.942  0.3078E+00  0.2580E+02
  14.952  0.2975E+00  0.2580E+02
  14.962  0.2872E+00  0.2581E+02
  14.972  0.2770E+00  0.2581E+02
  14.982  0.2668E+00  0.2581E+02
  14.992  0.2568E+00  0.2581E+02
  15.002  0.2470E+00  0.2582E+02
  15.012  0.2375E+00  0.2582E+02
  15.022  0.2283E+00  0.2582E+02
  15.032  0.2196E+00  0.2582E+02
  15.042  0.2114E+00  0.2582E+02
  15.052  0.2039E+00  0.2583E+02
  15.062  0.1971E+00  0.2583E+02
  15.072  0.1912E+00  0.2583E+02
  15.082  0.1862E+00  0.2583E+02
  15.092  0.1822E+00  0.2583E+02
  15.102  0.1792E+00  0.2584E+02
  15.112  0.1774E+00  0.2584E+02
  15.122  0.1767E+00  0.2584E+02
  15.132  0.1772E+00  0.2584E+02
  15.142  0.1789E+00  0.2584E+02
  15.152  0.1816E+00  0.2585E+02
  15.162  0.1854E+00  0.2585E+02
  15.172  0.1901E+00  0.2585E+02
  15.182  0.1957E+00  0.2585E+02
  15.192  0.2019E+00  0.2585E+02
  15.202  0.2087E+00  0.2585E+02
  15.212  0.2159E+00  0.2586E+02
  15.222  0.2232E+00  0.2586E+02
  15.232  0.2305E+00  0.2586E+02
  15.242  0.2376E+00  0.2586E+02
  15.252  0.2443E+00  0.2587E+02
  15.262  0.2504E+00  0.2587E+02
  15.272  0.2557E+00  0.2587E+02
  15.282  0.2602E+00  0.2587E+02
  15.292  0.2637E+00  0.2588E+02
  15.302  0.2661E+00  0.2588E+02
  15.312  0.2674E+00  0.2588E+02
  15.322  0.2677E+00  0.2588E+02
  15.332  0.2668E+00  0.2589E+02
  15.342  0.2648E+00  0.2589E+02
  15.352  0.2619E+00  0.2589E+02
  15.362  0.2581E+00  0.2590E+02
  15.372  0.2535E+00  0.2590E+02
  15.382  0.2482E+00  0.2590E+02
  15.392  0.2424E+00  0.2590E+02
  15.402  0.2361E+00  0.2591E+02
  15.412  0.2296E+00  0.2591E+02
  15.422  0.2229E+00  0.2591E+02
  15.432  0.2162E+00  0.2591E+02
  15.442  0.2096E+00  0.2591E+02
  15.452  0.2032E+00  0.2592E+02
  15.462  0.1970E+00  0.2592E+02
  15.472  0.1912E+00  0.2592E+02
  15.482  0.1858E+00  0.2592E+02
  15.492  0.1808E+00  0.2592E+02
  15.502  0.1763E+00  0.2593E+02
  15.512  0.1722E+00  0.2593E+02
  15.522  0.1685E+00  0.2593E+02
  15.532  0.1653E+00  0.2593E+02
  15.542  0.1624E+00  0.2593E+02
  15.552  0.1598E+00  0.2593E+02
  15.562  0.1575E+00  0.2594E+02
  15.572  0.1554E+00  0.2594E+02
  15.582  0.1534E+00  0.2594E+02
  15.592  0.1515E+00  0.2594E+02
  15.602  0.1496E+00  0.2594E+02
  15.612  0.1477E+00  0.2594E+02
  15.622  0.1457E+00  0.2594E+02
  15.632  0.1435E+00  0.2595E+02
  15.642  0.1412E+00  0.2595E+02
  15.652  0.1387E+00  0.2595E+02
  15.662  0.1360E+00  0.2595E+02
  15.672  0.1331E+00  0.2595E+02
  15.682  0.1300E+00  0.2595E+02
  15.692  0.1266E+00  0.2595E+02
  15.702  0.1230E+00  0.2595E+02
  15.712  0.1193E+00  0.2596E+02
  15.722  0.1153E+00  0.2596E+02
  15.732  0.1113E+00  0.2596E+02
  15.742  0.1071E+00  0.2596E+02
  15.752  0.1029E+00  0.2596E+02
  15.762  0.9877E-01  0.2596E+02
  15.772  0.9470E-01  0.2596E+02
  15.782  0.9079E-01  0.2596E+02
  15.792  0.8711E-01  0.2596E+02
  15.802  0.8374E-01  0.2596E+02
  15.812  0.8075E-01  0.2597E+02
  15.822  0.7819E-01  0.2597E+02
  15.832  0.7613E-01  0.2597E+02
  15.842  0.7461E-01  0.2597E+02
  15.852  0.7366E-01  0.2597E+02
  15.862  0.7329E-01  0.2597E+02
  15.872  0.7349E-01  0.2597E+02
  15.882  0.7423E-01  0.2597E+02
  15.892  0.7549E-01  0.2597E+02
  15.902  0.7718E-01  0.2597E+02
  15.912  0.7924E-01  0.2597E+02
  15.922  0.8156E-01  0.2597E+02
  15.932  0.8406E-01  0.2597E+02
  15.942  0.8662E-01  0.2598E+02
  15.952  0.8914E-01  0.2598E+02
  15.962  0.9151E-01  0.2598E+02
  15.972  0.9363E-01  0.2598E+02
  15.982  0.9540E-01  0.2598E+02
  15.992  0.9676E-01  0.2598E+02
  16.002  0.9765E-01  0.2598E+02
  16.012  0.9802E-01  0.2598E+02
  16.022  0.9784E-01  0.2598E+02
  16.032  0.9711E-01  0.2598E+02
  16.042  0.9584E-01  0.2599E+02
  16.052  0.9405E-01  0.2599E+02
  16.062  0.9178E-01  0.2599E+02
  16.072  0.8907E-01  0.2599E+02
  16.082  0.8597E-01  0.2599E+02
  16.092  0.8255E-01  0.2599E+02
  16.102  0.7886E-01  0.2599E+02
  16.112  0.7496E-01  0.2599E+02
  16.122  0.7091E-01  0.2599E+02
  16.132  0.6677E-01  0.2599E+02
  16.142  0.6259E-01  0.2599E+02
  16.152  0.5840E-01  0.2599E+02
  16.162  0.5427E-01  0.2599E+02
  16.172  0.5022E-01  0.2599E+02
  16.182  0.4628E-01  0.2600E+02
  16.192  0.4249E-01  0.2600E+02
  16.202  0.3887E-01  0.2600E+02
  16.212  0.3545E-01  0.2600E+02
  16.222  0.3223E-01  0.2600E+02
  16.232  0.2924E-01  0.2600E+02
  16.242  0.2647E-01  0.2600E+02
  16.252  0.2395E-01  0.2600E+02
  16.262  0.2165E-01  0.2600E+02
  16.272  0.1959E-01  0.2600E+02
  16.282  0.1775E-01  0.2600E+02
  16.292  0.1612E-01  0.2600E+02
  16.302  0.1468E-01  0.2600E+02
  16.312  0.1341E-01  0.2600E+02
  16.322  0.1230E-01  0.2600E+02
  16.332  0.1132E-01  0.2600E+02
  16.342  0.1046E-01  0.2600E+02
  16.352  0.9681E-02  0.2600E+02
  16.362  0.8978E-02  0.2600E+02
  16.372  0.8330E-02  0.2600E+02
  16.382  0.7723E-02  0.2600E+02
  16.392  0.7148E-02  0.2600E+02
  16.402  0.6595E-02  0.2600E+02
  16.412  0.6060E-02  0.2600E+02
  16.422  0.5538E-02  0.2600E+02
  16.432  0.5031E-02  0.2600E+02
  16.442  0.4539E-02  0.2600E+02
  16.452  0.4064E-02  0.2600E+02
  16.462  0.3609E-02  0.2600E+02
  16.472  0.3177E-02  0.2600E+02
  16.482  0.2771E-02  0.2600E+02
  16.492  0.2395E-02  0.2600E+02
  16.502  0.2050E-02  0.2600E+02
  16.512  0.1738E-02  0.2600E+02
  16.522  0.1458E-02  0.2600E+02
  16.532  0.1211E-02  0.2600E+02
  16.542  0.9952E-03  0.2600E+02
  16.552  0.8096E-03  0.2600E+02
  16.562  0.6517E-03  0.2600E+02
  16.572  0.5191E-03  0.2600E+02
  16.582  0.4091E-03  0.2600E+02
  16.592  0.3190E-03  0.2600E+02
  16.602  0.2461E-03  0.2600E+02
  16.612  0.1879E-03  0.2600E+02
  16.622  0.1419E-03  0.2600E+02
  16.632  0.1060E-03  0.2600E+02
  16.642  0.7835E-04  0.2600E+02
  16.652  0.5729E-04  0.2600E+02
  16.662  0.4144E-04  0.2600E+02
  16.672  0.2966E-04  0.2600E+02
  16.682  0.2099E-04  0.2600E+02
  16.692  0.1470E-04  0.2600E+02
  16.702  0.1019E-04  0.2600E+02
  16.712  0.6982E-05  0.2600E+02
  16.722  0.4734E-05  0.2600E+02
  16.732  0.3176E-05  0.2600E+02
  16.742  0.2107E-05  0.2600E+02
  16.752  0.1383E-05  0.2600E+02
  16.762  0.8982E-06  0.2600E+02
